H(Oe)	T(K)	R1+(Ohm)	R1_SD(Ohm)	R2(Ohm)	R2_SD(Ohm)	Hall R1(Ohm)	Hall R1 SD(Ohm)	Hall R2(Ohm)	Hall R2 SD(Ohm)	V(mV)	V_SD(mV)	R(Ohm)	R_SD(Ohm)	Hall V(mV)	Hall V SD(mV)	Hall R(Ohm)	Hall R SD(Ohm)
-50196.110000	    1.901030	  132.760055	    0.000232	  159.263330	    0.000567	   23.588205	    0.000878	  -29.989395	    0.002680	   14.601169	    0.000040	  146.011692	    0.000400	   -0.320059	    0.000178	   -3.200595	    0.001779
-49898.860000	    1.901030	  132.507720	    0.000321	  159.304285	    0.000635	   23.673370	    0.000513	  -30.089660	    0.000329	   14.590600	    0.000048	  145.906002	    0.000478	   -0.320815	    0.000042	   -3.208145	    0.000421
-49599.390000	    1.900849	  132.327605	    0.000298	  159.511305	    0.000597	   23.583030	    0.001732	  -29.989930	    0.000505	   14.591946	    0.000045	  145.919455	    0.000447	   -0.320345	    0.000112	   -3.203450	    0.001119
-49295.500000	    1.900585	  132.426690	    0.000228	  159.123135	    0.000246	   23.605860	    0.000435	  -29.995515	    0.000327	   14.577491	    0.000024	  145.774912	    0.000237	   -0.319483	    0.000038	   -3.194828	    0.000381
-48994.920000	    1.900419	  132.374660	    0.000463	  159.268925	    0.000170	   23.407155	    0.000704	  -29.912185	    0.000772	   14.582179	    0.000032	  145.821792	    0.000316	   -0.325252	    0.000074	   -3.252515	    0.000738
-48694.350000	    1.900266	  132.543400	    0.000372	  159.322430	    0.000708	   23.374760	    0.000495	  -29.797945	    0.000549	   14.593291	    0.000054	  145.932915	    0.000540	   -0.321159	    0.000052	   -3.211592	    0.000522
-48392.660000	    1.900155	  132.545935	    0.000228	  159.208720	    0.000243	   23.272595	    0.000497	  -29.798580	    0.001600	   14.587733	    0.000024	  145.877327	    0.000235	   -0.326299	    0.000105	   -3.262992	    0.001049
-48090.980000	    1.900127	  132.410435	    0.000257	  159.255185	    0.000373	   23.693140	    0.000304	  -29.907795	    0.000800	   14.583281	    0.000031	  145.832810	    0.000315	   -0.310733	    0.000055	   -3.107327	    0.000552
-47789.290000	    1.900030	  132.453855	    0.000392	  159.385070	    0.000586	   23.269770	    0.000596	  -29.740555	    0.000951	   14.591946	    0.000049	  145.919463	    0.000489	   -0.323539	    0.000077	   -3.235392	    0.000774
-47488.710000	    1.900016	  132.575215	    0.000423	  159.137630	    0.000451	   23.739530	    0.001196	  -29.610855	    0.000695	   14.585642	    0.000044	  145.856423	    0.000437	   -0.293566	    0.000095	   -2.935662	    0.000946
-47187.030000	    1.899975	  132.532450	    0.000503	  159.283740	    0.000291	   23.581470	    0.000683	  -29.616190	    0.000981	   14.590810	    0.000040	  145.908095	    0.000397	   -0.301736	    0.000083	   -3.017360	    0.000832
-46885.340000	    1.900044	  132.457560	    0.000251	  159.314865	    0.000807	   24.015965	    0.000348	  -30.019520	    0.000611	   14.588621	    0.000053	  145.886212	    0.000529	   -0.300178	    0.000048	   -3.001778	    0.000480
-46582.550000	    1.900044	  132.376770	    0.000348	  159.443810	    0.000762	   23.752520	    0.000909	  -29.835145	    0.000604	   14.591029	    0.000055	  145.910290	    0.000555	   -0.304131	    0.000076	   -3.041312	    0.000756
-46281.980000	    1.899933	  132.415955	    0.000285	  159.430910	    0.000459	   24.349795	    0.001895	  -30.301145	    0.000460	   14.592343	    0.000037	  145.923432	    0.000372	   -0.297567	    0.000118	   -2.975675	    0.001177
-45979.180000	    1.899947	  132.171260	    0.000210	  159.059150	    0.000554	   23.184460	    0.000406	  -29.349570	    0.000896	   14.561521	    0.000038	  145.615205	    0.000382	   -0.308256	    0.000065	   -3.082555	    0.000651
-45676.390000	    1.900100	  132.752955	    0.000389	  159.443900	    0.000568	   24.290655	    0.000299	  -30.078795	    0.000465	   14.609843	    0.000048	  146.098427	    0.000479	   -0.289407	    0.000038	   -2.894070	    0.000382
-45374.700000	    1.900141	  132.262920	    0.000425	  159.270480	    0.000157	   23.184150	    0.000200	  -28.900805	    0.000502	   14.576670	    0.000029	  145.766700	    0.000291	   -0.285833	    0.000035	   -2.858327	    0.000351
-45074.130000	    1.900155	  132.755615	    0.000331	  159.202945	    0.001249	   23.639760	    0.000443	  -29.752155	    0.000637	   14.597928	    0.000079	  145.979280	    0.000790	   -0.305620	    0.000054	   -3.056197	    0.000540
-44771.340000	    1.900141	  132.261950	    0.001168	  159.012240	    0.000512	   23.506875	    0.002079	  -29.023485	    0.001165	   14.563710	    0.000084	  145.637095	    0.000840	   -0.275830	    0.000162	   -2.758305	    0.001622
-44470.750000	    1.900141	  132.652405	    0.000206	  158.844365	    0.000343	   23.275230	    0.002837	  -28.885580	    0.000783	   14.574838	    0.000027	  145.748385	    0.000274	   -0.280517	    0.000181	   -2.805175	    0.001810
-44167.960000	    1.900016	  132.849470	    0.000143	  158.916945	    0.000591	   23.498930	    0.000224	  -29.042570	    0.000564	   14.588321	    0.000037	  145.883207	    0.000367	   -0.277182	    0.000039	   -2.771820	    0.000394
-43867.390000	    1.899864	  132.717150	    0.000486	  159.142925	    0.000644	   23.600740	    0.001216	  -29.357420	    0.001098	   14.593004	    0.000056	  145.930037	    0.000565	   -0.287834	    0.000116	   -2.878340	    0.001157
-43564.600000	    1.899850	  132.425140	    0.000201	  159.126265	    0.000390	   23.153840	    0.000393	  -28.439155	    0.000397	   14.577570	    0.000030	  145.775703	    0.000295	   -0.264266	    0.000039	   -2.642658	    0.000395
-43262.910000	    1.900044	  132.691020	    0.000457	  158.760895	    0.000872	   23.659915	    0.000360	  -28.974770	    0.000998	   14.572596	    0.000066	  145.725958	    0.000664	   -0.265743	    0.000068	   -2.657428	    0.000679
-42960.110000	    1.900058	  132.657490	    0.000276	  159.032885	    0.000362	   23.257515	    0.000485	  -28.811810	    0.001052	   14.584519	    0.000032	  145.845187	    0.000319	   -0.277715	    0.000077	   -2.777148	    0.000768
-42659.550000	    1.899905	  132.648175	    0.000313	  159.025600	    0.000292	   23.330015	    0.000930	  -28.793900	    0.000964	   14.583689	    0.000030	  145.836888	    0.000302	   -0.273194	    0.000095	   -2.731942	    0.000947
-42358.960000	    1.900114	  132.853335	    0.000498	  158.848435	    0.000234	   23.275335	    0.001835	  -28.556730	    0.000604	   14.585088	    0.000037	  145.850885	    0.000366	   -0.264070	    0.000122	   -2.640698	    0.001220
-42057.280000	    1.900072	  132.810545	    0.000212	  158.919990	    0.000376	   23.220240	    0.002391	  -28.900940	    0.001277	   14.586527	    0.000029	  145.865267	    0.000294	   -0.284035	    0.000183	   -2.840350	    0.001834
-41755.590000	    1.899975	  132.576985	    0.000597	  159.101435	    0.000352	   24.198850	    0.000874	  -29.442270	    0.000482	   14.583921	    0.000047	  145.839210	    0.000474	   -0.262171	    0.000068	   -2.621710	    0.000678
-41455.020000	    1.900155	  132.220810	    0.000312	  159.304515	    0.000162	   23.527960	    0.000627	  -28.532395	    0.000608	   14.576266	    0.000024	  145.762663	    0.000237	   -0.250222	    0.000062	   -2.502218	    0.000617
-41151.120000	    1.900141	  132.619670	    0.000177	  158.964155	    0.000526	   23.500645	    0.000330	  -28.678630	    0.000999	   14.579191	    0.000035	  145.791912	    0.000352	   -0.258899	    0.000066	   -2.588992	    0.000665
-40848.330000	    1.900002	  132.498675	    0.000582	  158.960675	    0.000282	   24.156270	    0.000237	  -29.438875	    0.000652	   14.572968	    0.000043	  145.729675	    0.000432	   -0.264130	    0.000044	   -2.641303	    0.000444
-40547.740000	    1.899878	  132.279555	    0.000315	  159.450950	    0.000626	   24.222500	    0.000243	  -28.945465	    0.002049	   14.586525	    0.000047	  145.865252	    0.000471	   -0.236148	    0.000115	   -2.361483	    0.001146
-40243.840000	    1.899933	  132.241540	    0.000529	  159.015260	    0.000679	   23.872865	    0.000562	  -28.903320	    0.001089	   14.562840	    0.000060	  145.628400	    0.000604	   -0.251523	    0.000083	   -2.515228	    0.000826
-39944.380000	    1.900086	  132.438795	    0.000379	  158.980780	    0.000457	   23.576140	    0.000925	  -29.015795	    0.003775	   14.570979	    0.000042	  145.709787	    0.000418	   -0.271983	    0.000235	   -2.719827	    0.002350
-39641.590000	    1.900058	  132.476760	    0.000701	  159.218110	    0.000309	   24.415040	    0.000219	  -29.410170	    0.000920	   14.584744	    0.000051	  145.847435	    0.000505	   -0.249757	    0.000057	   -2.497565	    0.000570
-39339.900000	    1.900155	  132.193740	    0.000788	  158.916015	    0.000524	   23.812410	    0.000354	  -28.993485	    0.001075	   14.555488	    0.000066	  145.554878	    0.000656	   -0.259054	    0.000071	   -2.590537	    0.000714
-39038.210000	    1.900280	  132.547905	    0.000246	  159.094145	    0.000856	   23.766890	    0.002067	  -28.409445	    0.000532	   14.582103	    0.000055	  145.821025	    0.000551	   -0.232128	    0.000130	   -2.321278	    0.001299
-38734.320000	    1.900502	  132.514015	    0.000228	  159.226255	    0.000614	   24.089220	    0.000144	  -29.389410	    0.001099	   14.587013	    0.000042	  145.870135	    0.000421	   -0.265009	    0.000062	   -2.650095	    0.000621
-38434.840000	    1.900280	  132.213715	    0.000279	  159.396550	    0.000274	   23.880070	    0.000619	  -28.788130	    0.000665	   14.580513	    0.000028	  145.805132	    0.000277	   -0.245403	    0.000064	   -2.454030	    0.000642
-38133.160000	    1.899975	  132.541270	    0.000814	  159.036355	    0.000408	   23.964010	    0.000480	  -28.899485	    0.000968	   14.578881	    0.000061	  145.788813	    0.000611	   -0.246774	    0.000072	   -2.467737	    0.000724
-37831.480000	    1.899919	  132.351150	    0.000724	  159.176815	    0.000627	   23.913530	    0.000498	  -28.862540	    0.000602	   14.576398	    0.000068	  145.763982	    0.000675	   -0.247451	    0.000055	   -2.474505	    0.000550
-37529.800000	    1.899989	  132.440875	    0.000608	  158.999235	    0.000342	   24.239580	    0.001276	  -28.787485	    0.001309	   14.572005	    0.000047	  145.720055	    0.000475	   -0.227395	    0.000129	   -2.273952	    0.001292
-37228.110000	    1.900197	  132.362290	    0.000329	  159.008035	    0.000283	   24.034085	    0.000770	  -28.040365	    0.001674	   14.568516	    0.000031	  145.685162	    0.000306	   -0.200314	    0.000122	   -2.003140	    0.001222
-36926.430000	    1.900002	  132.737035	    0.001832	  159.177695	    0.000332	   24.428260	    0.000407	  -28.650380	    0.000481	   14.595736	    0.000108	  145.957365	    0.001082	   -0.211106	    0.000044	   -2.111060	    0.000444
-36623.630000	    1.900058	  132.399040	    0.000204	  159.018140	    0.000242	   24.242455	    0.002412	  -29.031050	    0.000505	   14.570859	    0.000022	  145.708590	    0.000223	   -0.239430	    0.000146	   -2.394298	    0.001459
-36321.950000	    1.899989	  133.001405	    0.001000	  158.598865	    0.000515	   23.109715	    0.000633	  -27.616600	    0.000413	   14.580013	    0.000076	  145.800135	    0.000757	   -0.225344	    0.000052	   -2.253442	    0.000523
-36020.270000	    1.900030	  133.048665	    0.000124	  158.569815	    0.000388	   23.131450	    0.000389	  -27.616595	    0.000677	   14.580924	    0.000026	  145.809240	    0.000256	   -0.224257	    0.000053	   -2.242573	    0.000533
-35717.470000	    1.900252	  132.967105	    0.000288	  158.782640	    0.000712	   23.080585	    0.000373	  -27.478795	    0.000514	   14.587487	    0.000050	  145.874872	    0.000500	   -0.219911	    0.000044	   -2.199105	    0.000444
-35416.890000	    1.900127	  133.182415	    0.000270	  158.447805	    0.000447	   22.958135	    0.000795	  -27.570655	    0.000451	   14.581511	    0.000036	  145.815110	    0.000358	   -0.230626	    0.000062	   -2.306260	    0.000623
-35114.090000	    1.900114	  133.003955	    0.000628	  158.654550	    0.000316	   23.340955	    0.000299	  -27.611390	    0.000709	   14.582925	    0.000047	  145.829252	    0.000472	   -0.213522	    0.000050	   -2.135217	    0.000504
-34812.410000	    1.900030	  133.141400	    0.000304	  158.470030	    0.000365	   23.310950	    0.000565	  -27.803510	    0.001324	   14.580571	    0.000033	  145.805715	    0.000335	   -0.224628	    0.000094	   -2.246280	    0.000944
-34510.730000	    1.899933	  132.896645	    0.000846	  158.576430	    0.001501	   23.233650	    0.000337	  -27.709800	    0.000706	   14.573654	    0.000117	  145.736537	    0.001174	   -0.223808	    0.000052	   -2.238075	    0.000522
-34206.830000	    1.899947	  132.976300	    0.000331	  158.518740	    0.000186	   23.296990	    0.000257	  -27.910035	    0.000772	   14.574752	    0.000026	  145.747520	    0.000259	   -0.230652	    0.000051	   -2.306522	    0.000514
-33907.360000	    1.899947	  132.937790	    0.000195	  158.613820	    0.000387	   23.056345	    0.000311	  -27.214710	    0.000561	   14.577580	    0.000029	  145.775805	    0.000291	   -0.207918	    0.000044	   -2.079183	    0.000436
-33606.790000	    1.900100	  133.116985	    0.000319	  158.292680	    0.000462	   23.145625	    0.000662	  -27.301390	    0.000253	   14.570483	    0.000039	  145.704833	    0.000390	   -0.207788	    0.000046	   -2.077883	    0.000458
-33303.990000	    1.900044	  133.027880	    0.000284	  158.380925	    0.000292	   23.136990	    0.000504	  -27.618610	    0.000326	   14.570440	    0.000029	  145.704402	    0.000288	   -0.224081	    0.000041	   -2.240810	    0.000415
-33003.410000	    1.900197	  132.930735	    0.000323	  158.734685	    0.000349	   23.230165	    0.000186	  -27.544235	    0.000416	   14.583271	    0.000034	  145.832710	    0.000336	   -0.215704	    0.000030	   -2.157035	    0.000301
-32698.400000	    1.900211	  132.851850	    0.000467	  158.645850	    0.000579	   23.393425	    0.000608	  -27.269110	    0.001185	   14.574885	    0.000052	  145.748850	    0.000523	   -0.193784	    0.000090	   -1.937842	    0.000896
-32397.830000	    1.900114	  132.941120	    0.000259	  158.403935	    0.000433	   23.217160	    0.000512	  -27.405575	    0.000494	   14.567253	    0.000035	  145.672528	    0.000346	   -0.209421	    0.000050	   -2.094207	    0.000503
-32095.590000	    1.900002	  133.085370	    0.000454	  158.392090	    0.000296	   23.109420	    0.000545	  -27.598475	    0.000538	   14.573873	    0.000038	  145.738730	    0.000375	   -0.224453	    0.000054	   -2.244528	    0.000541
-31792.790000	    1.900169	  132.952685	    0.000461	  158.436680	    0.000207	   23.058380	    0.000759	  -27.073310	    0.000361	   14.569468	    0.000033	  145.694682	    0.000334	   -0.200747	    0.000056	   -2.007465	    0.000560
-31491.670000	    1.900266	  133.048950	    0.000215	  158.305030	    0.000347	   23.161030	    0.000455	  -27.412375	    0.001046	   14.567699	    0.000028	  145.676990	    0.000281	   -0.212567	    0.000075	   -2.125673	    0.000750
-31188.870000	    1.900127	  133.051115	    0.000315	  158.277040	    0.000339	   23.409375	    0.002143	  -27.019345	    0.000696	   14.566408	    0.000033	  145.664077	    0.000327	   -0.180499	    0.000142	   -1.804985	    0.001419
-30888.300000	    1.900044	  133.190905	    0.000215	  158.238125	    0.000888	   22.844675	    0.000459	  -26.916745	    0.000493	   14.571452	    0.000055	  145.714515	    0.000552	   -0.203604	    0.000048	   -2.036035	    0.000476
-30586.610000	    1.900197	  133.066405	    0.000256	  158.122440	    0.000268	   22.949570	    0.000182	  -27.104630	    0.000534	   14.559442	    0.000026	  145.594422	    0.000262	   -0.207753	    0.000036	   -2.077530	    0.000358
-30285.480000	    1.900127	  133.020690	    0.000344	  158.355260	    0.000527	   23.014615	    0.000739	  -27.167795	    0.000492	   14.568797	    0.000044	  145.687975	    0.000436	   -0.207659	    0.000062	   -2.076590	    0.000616
-29983.240000	    1.900100	  133.001320	    0.000564	  158.200865	    0.000456	   23.214460	    0.000301	  -27.240065	    0.000754	   14.560109	    0.000051	  145.601092	    0.000510	   -0.201280	    0.000053	   -2.012803	    0.000527
-29681.560000	    1.900002	  133.009635	    0.000304	  158.182335	    0.001245	   23.172150	    0.000669	  -27.162780	    0.001139	   14.559598	    0.000077	  145.595985	    0.000774	   -0.199531	    0.000090	   -1.995315	    0.000904
-29379.320000	    1.900072	  132.975930	    0.000267	  158.268995	    0.001920	   23.423440	    0.000283	  -27.120560	    0.000810	   14.562246	    0.000109	  145.622462	    0.001094	   -0.184856	    0.000055	   -1.848560	    0.000547
-29077.080000	    1.899989	  132.841380	    0.000220	  158.180650	    0.000389	   23.401750	    0.000324	  -27.262060	    0.000554	   14.551101	    0.000030	  145.511015	    0.000304	   -0.193016	    0.000044	   -1.930155	    0.000439
-28774.840000	    1.900280	  132.927335	    0.000549	  158.189235	    0.000566	   23.498005	    0.000363	  -27.028985	    0.000189	   14.555829	    0.000056	  145.558285	    0.000558	   -0.176549	    0.000028	   -1.765490	    0.000276
-28473.710000	    1.900294	  132.931250	    0.000153	  158.258995	    0.000253	   23.502815	    0.000392	  -27.178330	    0.000469	   14.559512	    0.000020	  145.595123	    0.000203	   -0.183776	    0.000043	   -1.837758	    0.000431
-28172.580000	    1.900211	  132.863840	    0.000440	  158.404165	    0.000612	   23.564900	    0.004354	  -27.276445	    0.000594	   14.563400	    0.000053	  145.634002	    0.000526	   -0.185577	    0.000247	   -1.855773	    0.002474
-27869.230000	    1.900086	  132.937655	    0.000435	  158.413640	    0.001052	   23.418860	    0.000840	  -27.429895	    0.000312	   14.567565	    0.000074	  145.675647	    0.000744	   -0.200552	    0.000058	   -2.005517	    0.000576
-27568.650000	    1.900169	  132.821005	    0.000333	  158.445645	    0.001404	   23.645760	    0.000802	  -26.880815	    0.000757	   14.563333	    0.000087	  145.633325	    0.000868	   -0.161753	    0.000078	   -1.617528	    0.000780
-27266.970000	    1.900114	  132.864875	    0.000298	  158.367725	    0.000593	   23.689855	    0.000380	  -26.917760	    0.000492	   14.561630	    0.000045	  145.616300	    0.000446	   -0.161395	    0.000044	   -1.613952	    0.000436
-26965.290000	    1.900044	  132.862915	    0.000518	  158.291875	    0.000235	   23.646730	    0.000930	  -26.747815	    0.000885	   14.557740	    0.000038	  145.577395	    0.000377	   -0.155054	    0.000091	   -1.550543	    0.000907
-26662.490000	    1.900030	  133.008520	    0.000540	  158.190465	    0.000470	   23.754735	    0.000376	  -26.990105	    0.000431	   14.559949	    0.000050	  145.599492	    0.000505	   -0.161768	    0.000040	   -1.617685	    0.000403
-26360.800000	    1.900197	  132.833975	    0.001551	  158.269175	    0.000434	   23.728435	    0.001703	  -26.980885	    0.000317	   14.555157	    0.000099	  145.551575	    0.000993	   -0.162622	    0.000101	   -1.626225	    0.001010
-26060.220000	    1.900044	  132.904020	    0.000630	  158.169065	    0.000348	   23.413530	    0.000216	  -27.147140	    0.001806	   14.553654	    0.000049	  145.536542	    0.000489	   -0.186681	    0.000101	   -1.866805	    0.001011
-25757.430000	    1.899961	  132.847585	    0.000253	  158.322100	    0.000326	   23.689340	    0.000580	  -26.949110	    0.000606	   14.558484	    0.000029	  145.584843	    0.000289	   -0.162988	    0.000059	   -1.629885	    0.000593
-25456.310000	    1.900238	  132.775115	    0.000457	  158.277900	    0.000481	   23.669560	    0.000325	  -26.810045	    0.000896	   14.552651	    0.000047	  145.526507	    0.000469	   -0.157024	    0.000061	   -1.570243	    0.000611
-25153.510000	    1.900183	  132.729925	    0.000499	  158.207830	    0.000419	   24.145350	    0.000659	  -27.017690	    0.001088	   14.546888	    0.000046	  145.468877	    0.000459	   -0.143617	    0.000087	   -1.436170	    0.000873
-24853.490000	    1.900155	  132.748075	    0.000479	  158.338000	    0.000143	   23.830190	    0.000514	  -26.933275	    0.001376	   14.554304	    0.000031	  145.543037	    0.000311	   -0.155154	    0.000094	   -1.551543	    0.000945
-24549.030000	    1.900114	  132.841395	    0.000263	  158.241545	    0.000631	   23.599690	    0.000252	  -26.725120	    0.000477	   14.554147	    0.000045	  145.541470	    0.000447	   -0.156272	    0.000036	   -1.562715	    0.000364
-24549.030000	    1.900183	  132.804905	    0.000331	  158.329070	    0.000486	   24.185280	    0.000412	  -27.269765	    0.000217	   14.556699	    0.000041	  145.566987	    0.000408	   -0.154224	    0.000031	   -1.542243	    0.000315
-24247.350000	    1.900252	  132.735350	    0.000271	  158.231860	    0.000271	   23.590360	    0.000155	  -27.022680	    0.002377	   14.548361	    0.000027	  145.483605	    0.000271	   -0.171616	    0.000127	   -1.716160	    0.001266
-23947.330000	    1.900127	  132.721540	    0.000289	  158.136475	    0.001131	   23.632710	    0.000407	  -27.077200	    0.002533	   14.542901	    0.000071	  145.429008	    0.000710	   -0.172225	    0.000147	   -1.722245	    0.001470
-23644.540000	    1.900141	  132.860460	    0.000454	  158.132905	    0.000126	   23.819760	    0.000174	  -27.150850	    0.000403	   14.549668	    0.000029	  145.496682	    0.000290	   -0.166554	    0.000029	   -1.665545	    0.000288
-23342.860000	    1.900044	  132.595645	    0.000193	  158.481385	    0.000405	   23.735145	    0.000190	  -26.979050	    0.000977	   14.553852	    0.000030	  145.538515	    0.000299	   -0.162195	    0.000058	   -1.621952	    0.000584
-23041.720000	    1.900114	  132.657595	    0.000273	  158.503510	    0.000252	   23.912620	    0.000289	  -26.893370	    0.000555	   14.558055	    0.000026	  145.580553	    0.000263	   -0.149038	    0.000042	   -1.490375	    0.000422
-22738.930000	    1.900155	  132.666385	    0.000484	  158.337870	    0.000556	   23.865140	    0.000575	  -26.946555	    0.000453	   14.550213	    0.000052	  145.502127	    0.000520	   -0.154071	    0.000051	   -1.540708	    0.000514
-22437.800000	    1.900086	  132.597900	    0.000266	  158.485370	    0.000642	   24.070005	    0.000311	  -26.966440	    0.000547	   14.554163	    0.000045	  145.541635	    0.000454	   -0.144822	    0.000043	   -1.448217	    0.000429
-22135.000000	    1.900211	  132.638835	    0.000320	  158.215160	    0.000354	   23.835995	    0.001842	  -26.896770	    0.000388	   14.542700	    0.000034	  145.426998	    0.000337	   -0.153039	    0.000111	   -1.530388	    0.001115
-21833.870000	    1.900127	  132.665685	    0.000512	  158.213730	    0.000474	   23.688615	    0.001630	  -26.923350	    0.000409	   14.543971	    0.000049	  145.439707	    0.000493	   -0.161737	    0.000102	   -1.617368	    0.001019
-21532.190000	    1.900183	  132.685390	    0.000276	  158.208815	    0.000452	   23.939740	    0.001948	  -26.855460	    0.000727	   14.544710	    0.000036	  145.447102	    0.000364	   -0.145786	    0.000134	   -1.457860	    0.001338
-21229.950000	    1.900114	  132.828445	    0.000418	  158.144305	    0.000256	   24.162675	    0.000920	  -26.832830	    0.000681	   14.548638	    0.000034	  145.486375	    0.000337	   -0.133508	    0.000080	   -1.335078	    0.000801
-20927.710000	    1.900197	  132.652585	    0.000218	  158.308005	    0.000238	   23.828930	    0.000714	  -26.465600	    0.000311	   14.548030	    0.000023	  145.480295	    0.000228	   -0.131833	    0.000051	   -1.318335	    0.000512
-20626.030000	    1.900169	  132.665365	    0.000693	  158.254785	    0.000352	   24.069565	    0.000395	  -26.585060	    0.000778	   14.546007	    0.000052	  145.460075	    0.000522	   -0.125775	    0.000059	   -1.257748	    0.000587
-20323.790000	    1.900127	  132.574050	    0.000182	  158.255935	    0.000211	   24.122350	    0.000743	  -26.536070	    0.000852	   14.541499	    0.000020	  145.414992	    0.000196	   -0.120686	    0.000080	   -1.206860	    0.000797
-20021.550000	    1.900086	  132.588965	    0.000312	  158.003670	    0.000114	   23.919610	    0.000418	  -26.675135	    0.000322	   14.529632	    0.000021	  145.296317	    0.000213	   -0.137776	    0.000037	   -1.377762	    0.000370
-19718.750000	    1.900141	  132.589345	    0.000675	  158.205435	    0.000593	   24.176580	    0.000237	  -26.738380	    0.000455	   14.539739	    0.000063	  145.397390	    0.000634	   -0.128090	    0.000035	   -1.280900	    0.000346
-19418.730000	    1.900141	  132.560850	    0.000346	  158.434690	    0.000395	   23.819375	    0.000491	  -26.986685	    0.000668	   14.549777	    0.000037	  145.497770	    0.000371	   -0.158365	    0.000058	   -1.583655	    0.000579
-19116.490000	    1.900100	  132.663980	    0.000312	  158.093110	    0.000227	   24.084220	    0.000564	  -26.393050	    0.001052	   14.537854	    0.000027	  145.378545	    0.000270	   -0.115441	    0.000081	   -1.154415	    0.000808
-18814.260000	    1.900100	  132.485315	    0.000265	  158.251455	    0.000327	   24.360915	    0.000355	  -26.635795	    0.000662	   14.536838	    0.000030	  145.368385	    0.000296	   -0.113744	    0.000051	   -1.137440	    0.000509
-18513.120000	    1.900127	  132.573065	    0.000250	  158.299980	    0.000325	   24.335920	    0.000387	  -26.582605	    0.000698	   14.543652	    0.000029	  145.436522	    0.000288	   -0.112334	    0.000054	   -1.123342	    0.000543
-18210.880000	    1.900114	  132.537880	    0.000352	  158.105950	    0.000761	   24.126150	    0.000794	  -26.453425	    0.000560	   14.532191	    0.000056	  145.321915	    0.000556	   -0.116364	    0.000068	   -1.163637	    0.000677
-17909.200000	    1.900141	  132.624645	    0.001141	  158.033540	    0.000258	   24.374030	    0.000242	  -26.474865	    0.000353	   14.532909	    0.000070	  145.329093	    0.000700	   -0.105042	    0.000030	   -1.050417	    0.000298
-17606.960000	    1.900114	  132.508375	    0.000405	  157.997345	    0.000473	   23.758720	    0.001125	  -26.259620	    0.000367	   14.525286	    0.000044	  145.252860	    0.000439	   -0.125045	    0.000075	   -1.250450	    0.000746
-17305.280000	    1.900114	  132.712795	    0.000350	  157.905545	    0.000860	   23.963255	    0.001373	  -26.382025	    0.000788	   14.530917	    0.000060	  145.309170	    0.000605	   -0.120939	    0.000108	   -1.209385	    0.001080
-17003.590000	    1.900044	  132.564600	    0.000329	  158.027165	    0.001414	   24.287490	    0.001289	  -26.577235	    0.001162	   14.529588	    0.000087	  145.295883	    0.000871	   -0.114487	    0.000123	   -1.144872	    0.001225
-16701.910000	    1.900058	  132.349205	    0.000463	  158.166625	    0.000413	   24.333790	    0.000422	  -26.373775	    0.000941	   14.525792	    0.000044	  145.257915	    0.000438	   -0.101999	    0.000068	   -1.019992	    0.000681
-16399.670000	    1.900238	  132.542640	    0.000251	  158.057980	    0.000100	   24.519930	    0.000436	  -26.288785	    0.000570	   14.530031	    0.000018	  145.300310	    0.000176	   -0.088443	    0.000050	   -0.884428	    0.000503
-16097.430000	    1.900100	  132.495290	    0.000334	  158.007085	    0.000895	   24.220295	    0.001030	  -26.366720	    0.000801	   14.525119	    0.000061	  145.251187	    0.000614	   -0.107321	    0.000092	   -1.073212	    0.000915
-15795.190000	    1.900141	  132.527735	    0.000238	  158.062765	    0.000247	   24.240110	    0.000510	  -26.136985	    0.000866	   14.529525	    0.000024	  145.295250	    0.000243	   -0.094844	    0.000069	   -0.948438	    0.000688
-15493.500000	    1.900072	  132.579575	    0.000192	  158.011070	    0.001388	   24.456300	    0.000401	  -26.305445	    0.000815	   14.529532	    0.000079	  145.295322	    0.000790	   -0.092457	    0.000061	   -0.924573	    0.000608
-15190.160000	    1.900141	  132.483925	    0.000675	  158.008850	    0.000202	   24.201020	    0.000211	  -26.118325	    0.001402	   14.524639	    0.000044	  145.246387	    0.000438	   -0.095865	    0.000081	   -0.958652	    0.000807
-14890.130000	    1.900155	  132.558140	    0.000403	  157.894470	    0.000130	   24.108270	    0.000678	  -26.024585	    0.001579	   14.522630	    0.000027	  145.226305	    0.000266	   -0.095816	    0.000113	   -0.958157	    0.001129
-14587.890000	    1.900016	  132.485055	    0.001066	  157.962955	    0.001376	   24.117140	    0.000486	  -26.329655	    0.000653	   14.522400	    0.000122	  145.224005	    0.001221	   -0.110626	    0.000057	   -1.106257	    0.000569
-14285.100000	    1.900100	  132.405430	    0.000201	  157.937950	    0.000187	   24.461730	    0.000706	  -26.225805	    0.000245	   14.517169	    0.000019	  145.171690	    0.000194	   -0.088204	    0.000048	   -0.882037	    0.000475
-13983.970000	    1.899975	  132.379830	    0.000424	  157.891255	    0.000434	   24.251380	    0.000188	  -26.194375	    0.001127	   14.513554	    0.000043	  145.135542	    0.000429	   -0.097150	    0.000066	   -0.971497	    0.000658
-13681.730000	    1.900127	  132.324435	    0.000496	  158.024815	    0.000369	   24.540445	    0.000705	  -26.067165	    0.000239	   14.517462	    0.000043	  145.174625	    0.000432	   -0.076336	    0.000047	   -0.763360	    0.000472
-13380.600000	    1.899989	  132.454050	    0.000305	  157.759075	    0.000188	   24.355205	    0.000590	  -25.841755	    0.001407	   14.510656	    0.000025	  145.106562	    0.000247	   -0.074327	    0.000100	   -0.743275	    0.000999
-13077.590000	    1.900114	  132.517910	    0.000244	  157.887990	    0.000529	   24.294665	    0.000822	  -26.053825	    0.001039	   14.520295	    0.000039	  145.202950	    0.000387	   -0.087958	    0.000093	   -0.879580	    0.000930
-12775.240000	    1.900072	  132.478825	    0.000570	  157.916045	    0.000166	   24.398840	    0.000374	  -25.986700	    0.000485	   14.519744	    0.000037	  145.197435	    0.000368	   -0.079393	    0.000043	   -0.793930	    0.000429
-12475.770000	    1.900114	  132.305810	    0.000276	  157.831635	    0.000223	   24.531595	    0.000561	  -25.890100	    0.000385	   14.506872	    0.000025	  145.068723	    0.000250	   -0.067925	    0.000047	   -0.679252	    0.000473
-12173.640000	    1.900141	  132.430200	    0.000181	  157.935700	    0.000220	   24.481065	    0.000556	  -25.873175	    0.002836	   14.518295	    0.000020	  145.182950	    0.000201	   -0.069606	    0.000170	   -0.696055	    0.001696
-11871.070000	    1.900141	  132.348415	    0.000209	  157.935375	    0.000336	   24.623330	    0.001029	  -26.131570	    0.002391	   14.514189	    0.000027	  145.141895	    0.000272	   -0.075412	    0.000171	   -0.754120	    0.001710
-11569.160000	    1.900072	  132.266545	    0.000093	  157.845020	    0.000305	   24.903290	    0.001561	  -26.268945	    0.001601	   14.505578	    0.000020	  145.055783	    0.000199	   -0.068283	    0.000158	   -0.682827	    0.001581
-11267.030000	    1.900114	  132.217520	    0.000686	  158.069035	    0.000581	   24.362115	    0.000573	  -26.104425	    0.000354	   14.514328	    0.000063	  145.143277	    0.000633	   -0.087115	    0.000046	   -0.871155	    0.000464
-10964.680000	    1.900030	  132.280210	    0.000138	  157.792030	    0.000100	   24.609725	    0.000315	  -26.047485	    0.000936	   14.503612	    0.000012	  145.036120	    0.000119	   -0.071888	    0.000063	   -0.718880	    0.000626
-10661.670000	    1.900058	  132.271780	    0.000193	  157.724090	    0.000521	   24.245895	    0.000558	  -25.811150	    0.000954	   14.499793	    0.000036	  144.997935	    0.000357	   -0.078263	    0.000076	   -0.782627	    0.000756
-10361.100000	    1.900072	  132.270880	    0.000428	  157.574475	    0.000418	   24.215625	    0.000719	  -25.680985	    0.000541	   14.492268	    0.000042	  144.922677	    0.000423	   -0.073268	    0.000063	   -0.732680	    0.000630
-10060.080000	    1.900100	  132.323715	    0.000305	  157.747595	    0.000225	   24.472260	    0.000465	  -25.297770	    0.001797	   14.503566	    0.000026	  145.035655	    0.000265	   -0.041276	    0.000113	   -0.412755	    0.001131
-9852.885000	    1.900016	  132.353320	    0.000252	  157.482915	    0.000581	   24.537675	    0.000873	  -25.523530	    0.000834	   14.491812	    0.000042	  144.918117	    0.000416	   -0.049293	    0.000085	   -0.492928	    0.000853
-9773.249000	    1.899864	  132.370240	    0.000176	  157.642700	    0.000414	   24.522015	    0.000389	  -25.470130	    0.000903	   14.500647	    0.000030	  145.006470	    0.000295	   -0.047406	    0.000065	   -0.474058	    0.000646
-9693.396000	    1.899919	  132.233265	    0.000791	  157.632065	    0.000547	   24.195455	    0.000422	  -25.464225	    0.000479	   14.493267	    0.000067	  144.932665	    0.000669	   -0.063439	    0.000045	   -0.634385	    0.000451
-9612.429000	    1.899933	  132.342825	    0.000264	  157.359070	    0.000709	   23.871650	    0.000486	  -25.593320	    0.003202	   14.485095	    0.000049	  144.850947	    0.000486	   -0.086084	    0.000184	   -0.860835	    0.001844
-9533.454000	    1.900141	  132.319560	    0.000390	  157.550425	    0.000306	   24.276285	    0.000526	  -25.477810	    0.001672	   14.493499	    0.000035	  144.934993	    0.000348	   -0.060076	    0.000110	   -0.600763	    0.001099
-9450.496000	    1.900044	  132.261135	    0.000424	  157.566425	    0.000549	   24.391010	    0.000329	  -25.258815	    0.000550	   14.491378	    0.000049	  144.913780	    0.000486	   -0.043390	    0.000044	   -0.433903	    0.000440
-9371.078000	    1.899933	  132.340155	    0.000369	  157.561380	    0.000231	   24.165585	    0.000416	  -25.875475	    0.000112	   14.495077	    0.000030	  144.950767	    0.000300	   -0.085495	    0.000026	   -0.854945	    0.000264
-9290.337000	    1.899836	  132.149550	    0.000988	  157.677665	    0.000637	   24.388435	    0.000221	  -25.767000	    0.000808	   14.491361	    0.000081	  144.913607	    0.000813	   -0.068928	    0.000051	   -0.689282	    0.000515
-9210.032000	    1.900030	  132.278610	    0.000385	  157.555910	    0.000859	   24.777370	    0.000822	  -25.489730	    0.001072	   14.491726	    0.000062	  144.917260	    0.000622	   -0.035618	    0.000095	   -0.356180	    0.000947
-9129.510000	    1.900002	  132.266850	    0.000243	  157.486115	    0.000627	   24.806600	    0.001559	  -25.480990	    0.000453	   14.487648	    0.000043	  144.876482	    0.000435	   -0.033719	    0.000101	   -0.337195	    0.001006
-9049.430000	    1.900100	  132.181620	    0.000338	  157.622455	    0.000191	   24.362305	    0.000299	  -25.713005	    0.000395	   14.490204	    0.000026	  144.902038	    0.000264	   -0.067535	    0.000035	   -0.675350	    0.000347
-8969.126000	    1.900224	  132.088280	    0.000243	  157.592295	    0.000591	   24.477010	    0.001699	  -25.672665	    0.000371	   14.484029	    0.000042	  144.840287	    0.000417	   -0.059783	    0.000104	   -0.597827	    0.001035
-8887.498000	    1.900127	  132.214730	    0.000497	  157.550460	    0.000105	   24.511960	    0.000755	  -25.588440	    0.004251	   14.488259	    0.000030	  144.882595	    0.000301	   -0.053824	    0.000250	   -0.538240	    0.002503
-8808.080000	    1.900349	  132.234680	    0.000500	  157.589205	    0.000177	   24.406055	    0.000734	  -25.629720	    0.000973	   14.491194	    0.000034	  144.911943	    0.000339	   -0.061183	    0.000085	   -0.611833	    0.000853
-8728.226000	    1.900238	  132.097400	    0.000592	  157.635620	    0.000336	   24.772380	    0.000260	  -25.540580	    0.000786	   14.486651	    0.000046	  144.866510	    0.000464	   -0.038410	    0.000052	   -0.384100	    0.000523
-8648.146000	    1.900211	  132.289095	    0.000388	  157.508190	    0.000435	   24.471585	    0.000769	  -25.511065	    0.000755	   14.489864	    0.000041	  144.898642	    0.000412	   -0.051974	    0.000076	   -0.519740	    0.000762
-8567.842000	    1.899933	  132.164845	    0.000303	  157.449260	    0.000209	   24.708645	    0.000361	  -25.773265	    0.000289	   14.480705	    0.000026	  144.807052	    0.000256	   -0.053231	    0.000032	   -0.532310	    0.000325
-8487.101000	    1.899961	  132.019620	    0.000347	  157.638145	    0.000364	   24.460165	    0.000441	  -25.924870	    0.000508	   14.482888	    0.000036	  144.828883	    0.000356	   -0.073235	    0.000047	   -0.732353	    0.000475
-8405.466000	    1.900058	  131.987865	    0.000268	  157.696360	    0.000334	   25.031175	    0.000465	  -25.634880	    0.000942	   14.484211	    0.000030	  144.842112	    0.000301	   -0.030185	    0.000070	   -0.301853	    0.000703
-8324.500000	    1.900058	  132.174990	    0.000546	  157.719030	    0.000236	   24.750620	    0.000476	  -25.953645	    0.000303	   14.494701	    0.000039	  144.947010	    0.000391	   -0.060151	    0.000039	   -0.601513	    0.000389
-8245.532000	    1.900197	  132.062350	    0.000196	  157.689605	    0.000348	   24.664595	    0.000503	  -25.750555	    0.000624	   14.487598	    0.000027	  144.875977	    0.000272	   -0.054298	    0.000056	   -0.542980	    0.000563
-8165.896000	    1.900280	  132.154825	    0.001691	  157.410320	    0.000411	   24.579805	    0.000755	  -25.489675	    0.001532	   14.478257	    0.000105	  144.782573	    0.001051	   -0.045493	    0.000114	   -0.454935	    0.001143
-8086.479000	    1.900335	  131.999945	    0.000308	  157.641165	    0.000400	   24.698100	    0.000435	  -25.413040	    0.000379	   14.482055	    0.000035	  144.820555	    0.000354	   -0.035747	    0.000041	   -0.357470	    0.000407
-8006.842000	    1.900363	  132.263490	    0.000198	  157.315840	    0.000264	   24.501865	    0.000701	  -25.228040	    0.000804	   14.478967	    0.000023	  144.789665	    0.000231	   -0.036309	    0.000075	   -0.363087	    0.000752
-7924.990000	    1.900335	  132.076965	    0.000214	  157.593805	    0.000414	   24.601870	    0.001443	  -25.085040	    0.001001	   14.483538	    0.000031	  144.835385	    0.000314	   -0.024158	    0.000122	   -0.241585	    0.001222
-7844.910000	    1.900224	  132.126930	    0.000331	  157.486500	    0.000783	   24.543200	    0.001007	  -25.404025	    0.000755	   14.480672	    0.000056	  144.806715	    0.000557	   -0.043041	    0.000088	   -0.430412	    0.000881
-7764.169000	    1.900044	  132.109165	    0.000194	  157.444470	    0.000802	   24.618575	    0.000831	  -24.997560	    0.000256	   14.477682	    0.000050	  144.776817	    0.000498	   -0.018949	    0.000054	   -0.189492	    0.000544
-7684.308000	    1.899989	  132.207320	    0.000248	  157.350720	    0.000466	   24.435190	    0.000517	  -25.432775	    0.000736	   14.477902	    0.000036	  144.779020	    0.000357	   -0.049879	    0.000063	   -0.498793	    0.000627
-7604.228000	    1.900058	  132.120720	    0.000471	  157.419960	    0.000268	   24.649615	    0.000658	  -25.399080	    0.000588	   14.477034	    0.000037	  144.770340	    0.000369	   -0.037473	    0.000062	   -0.374733	    0.000623
-7524.149000	    1.899878	  132.149810	    0.000179	  157.469490	    0.000227	   24.437115	    0.001227	  -25.407115	    0.001557	   14.480965	    0.000020	  144.809650	    0.000203	   -0.048500	    0.000139	   -0.485000	    0.001392
-7444.287000	    1.900030	  132.161605	    0.000298	  157.344950	    0.000359	   24.519810	    0.000359	  -25.538850	    0.001998	   14.475328	    0.000033	  144.753277	    0.000328	   -0.050952	    0.000118	   -0.509520	    0.001179
-7363.103000	    1.900030	  132.114740	    0.000380	  157.647750	    0.000328	   24.122670	    0.001629	  -25.354410	    0.000364	   14.488125	    0.000035	  144.881245	    0.000354	   -0.061587	    0.000100	   -0.615870	    0.000996
-7283.242000	    1.900058	  132.122460	    0.000289	  157.342230	    0.000351	   24.511315	    0.000564	  -25.179030	    0.001099	   14.473234	    0.000032	  144.732345	    0.000320	   -0.033386	    0.000083	   -0.333858	    0.000831
-7202.944000	    1.900211	  132.124625	    0.000440	  157.230435	    0.000757	   24.593890	    0.000565	  -25.422750	    0.001107	   14.467753	    0.000060	  144.677530	    0.000599	   -0.041443	    0.000084	   -0.414430	    0.000836
-7122.420000	    1.900114	  131.988675	    0.000560	  157.439860	    0.000174	   24.379060	    0.000441	  -25.538660	    0.000252	   14.471427	    0.000037	  144.714267	    0.000367	   -0.057980	    0.000035	   -0.579800	    0.000346
-7042.118000	    1.900280	  132.057115	    0.000475	  157.493165	    0.000197	   24.538875	    0.000399	  -25.251930	    0.001077	   14.477514	    0.000034	  144.775140	    0.000336	   -0.035653	    0.000074	   -0.356527	    0.000738
-6961.373000	    1.900155	  132.091285	    0.000186	  157.332770	    0.001032	   24.551135	    0.000338	  -25.333265	    0.000499	   14.471203	    0.000061	  144.712028	    0.000609	   -0.039107	    0.000042	   -0.391065	    0.000419
-6879.519000	    1.900169	  132.147375	    0.000169	  157.346000	    0.000198	   24.516315	    0.000508	  -25.474730	    0.002366	   14.474669	    0.000018	  144.746688	    0.000184	   -0.047921	    0.000144	   -0.479207	    0.001437
-6799.439000	    1.899947	  132.086265	    0.000261	  157.330070	    0.000375	   24.323450	    0.001690	  -25.310210	    0.000458	   14.470817	    0.000032	  144.708167	    0.000318	   -0.049338	    0.000107	   -0.493380	    0.001074
-6718.694000	    1.900169	  132.014515	    0.000491	  157.157770	    0.000252	   24.214930	    0.000770	  -25.442115	    0.001620	   14.458614	    0.000037	  144.586142	    0.000372	   -0.061359	    0.000119	   -0.613592	    0.001195
-6639.059000	    1.900100	  132.077220	    0.000229	  157.184660	    0.000138	   24.551840	    0.002151	  -25.301300	    0.000700	   14.463094	    0.000018	  144.630940	    0.000183	   -0.037473	    0.000143	   -0.374730	    0.001425
-6558.757000	    1.900238	  132.056565	    0.000258	  157.421675	    0.000162	   24.427625	    0.000406	  -25.551145	    0.001182	   14.473912	    0.000021	  144.739120	    0.000210	   -0.056176	    0.000079	   -0.561760	    0.000794
-6478.899000	    1.900086	  132.099885	    0.000711	  157.261970	    0.000267	   24.601945	    0.000456	  -25.315510	    0.000492	   14.468093	    0.000049	  144.680927	    0.000489	   -0.035678	    0.000047	   -0.356782	    0.000474
-6397.822000	    1.900114	  132.060355	    0.000069	  157.261960	    0.000151	   24.505645	    0.001705	  -24.988010	    0.005055	   14.466116	    0.000011	  144.661158	    0.000110	   -0.024118	    0.000338	   -0.241183	    0.003380
-6317.632000	    1.900072	  132.212720	    0.001278	  157.207005	    0.000393	   24.422260	    0.000621	  -24.833265	    0.000301	   14.470986	    0.000084	  144.709862	    0.000836	   -0.020550	    0.000046	   -0.205502	    0.000461
-6237.552000	    1.900072	  132.110175	    0.000320	  157.042635	    0.000384	   24.273555	    0.000591	  -25.175635	    0.000371	   14.457641	    0.000035	  144.576405	    0.000352	   -0.045104	    0.000048	   -0.451040	    0.000481
-6157.362000	    1.900100	  132.061710	    0.003932	  157.288850	    0.000415	   24.305635	    0.002187	  -25.044595	    0.000352	   14.467528	    0.000217	  144.675280	    0.002173	   -0.036948	    0.000127	   -0.369480	    0.001269
-6076.949000	    1.900114	  132.028180	    0.000284	  157.214955	    0.000168	   24.782550	    0.000296	  -25.311420	    0.001187	   14.462157	    0.000023	  144.621567	    0.000226	   -0.026444	    0.000074	   -0.264435	    0.000742
-5996.870000	    1.899989	  131.922280	    0.000243	  157.128165	    0.000460	   24.447055	    0.000403	  -25.345330	    0.001832	   14.452522	    0.000035	  144.525222	    0.000351	   -0.044914	    0.000112	   -0.449137	    0.001117
-5917.235000	    1.900030	  131.994030	    0.000535	  157.286155	    0.000406	   24.749925	    0.000439	  -25.210020	    0.000585	   14.464009	    0.000047	  144.640093	    0.000471	   -0.023005	    0.000051	   -0.230047	    0.000512
-5836.156000	    1.900086	  132.056795	    0.000323	  157.323305	    0.000467	   24.716255	    0.000849	  -25.008185	    0.000189	   14.469005	    0.000039	  144.690050	    0.000395	   -0.014596	    0.000052	   -0.145965	    0.000519
-5756.188000	    1.900127	  131.922105	    0.000409	  157.229895	    0.000328	   24.802310	    0.000392	  -25.032625	    0.001286	   14.457600	    0.000037	  144.576000	    0.000369	   -0.011516	    0.000084	   -0.115158	    0.000839
-5676.219000	    1.900155	  131.976745	    0.000381	  157.217085	    0.000168	   24.593535	    0.001369	  -25.026200	    0.001318	   14.459691	    0.000027	  144.596915	    0.000275	   -0.021633	    0.000134	   -0.216333	    0.001344
-5596.029000	    1.900100	  132.062380	    0.000212	  157.102290	    0.000602	   24.516370	    0.000432	  -25.020915	    0.000588	   14.458234	    0.000041	  144.582335	    0.000407	   -0.025227	    0.000051	   -0.252273	    0.000510
-5515.616000	    1.900224	  131.997525	    0.000446	  157.066160	    0.000378	   24.496610	    0.000805	  -25.209960	    0.000726	   14.453184	    0.000041	  144.531842	    0.000412	   -0.035667	    0.000077	   -0.356675	    0.000765
-5435.426000	    1.900127	  132.077260	    0.000282	  157.081075	    0.000475	   24.490925	    0.000765	  -25.059935	    0.000281	   14.457917	    0.000038	  144.579168	    0.000379	   -0.028450	    0.000052	   -0.284505	    0.000523
-5354.570000	    1.900086	  131.974525	    0.000433	  157.086350	    0.000419	   24.587680	    0.000363	  -25.300265	    0.000357	   14.453044	    0.000043	  144.530438	    0.000426	   -0.035629	    0.000036	   -0.356293	    0.000360
-5274.379000	    1.900114	  131.885860	    0.000676	  157.363935	    0.000318	   24.407405	    0.000305	  -25.179790	    0.000295	   14.462490	    0.000050	  144.624897	    0.000497	   -0.038619	    0.000030	   -0.386193	    0.000300
-5194.078000	    1.900141	  131.852580	    0.000263	  157.221210	    0.000519	   24.637270	    0.000263	  -25.293670	    0.000369	   14.453689	    0.000039	  144.536895	    0.000391	   -0.032820	    0.000032	   -0.328200	    0.000316
-5114.331000	    1.900002	  131.887110	    0.000390	  156.962740	    0.000100	   24.719085	    0.000726	  -25.229680	    0.000485	   14.442493	    0.000025	  144.424925	    0.000245	   -0.025530	    0.000061	   -0.255298	    0.000605
-5034.251000	    1.900100	  131.782350	    0.000192	  157.170825	    0.000433	   24.620545	    0.000588	  -25.097620	    0.000537	   14.447659	    0.000031	  144.476587	    0.000312	   -0.023854	    0.000056	   -0.238537	    0.000563
-4954.283000	    1.900114	  131.812570	    0.000195	  157.165510	    0.000506	   24.622475	    0.000365	  -25.281930	    0.000603	   14.448904	    0.000035	  144.489040	    0.000350	   -0.032973	    0.000048	   -0.329727	    0.000484
-4874.093000	    1.900114	  131.945300	    0.000276	  157.160125	    0.000577	   24.800090	    0.000912	  -25.200355	    0.000290	   14.455271	    0.000043	  144.552712	    0.000426	   -0.020013	    0.000060	   -0.200132	    0.000601
-4792.460000	    1.900169	  132.086125	    0.000268	  156.901065	    0.001159	   24.608715	    0.000282	  -24.836935	    0.000426	   14.449360	    0.000071	  144.493595	    0.000713	   -0.011411	    0.000035	   -0.114110	    0.000354
-4711.938000	    1.900252	  131.958015	    0.000460	  156.926300	    0.001208	   24.869805	    0.007070	  -24.921110	    0.000934	   14.444216	    0.000083	  144.442158	    0.000834	   -0.002565	    0.000400	   -0.025652	    0.004002
-4631.303000	    1.900016	  132.075635	    0.000274	  156.923805	    0.000152	   24.616245	    0.003377	  -24.963895	    0.000999	   14.449972	    0.000021	  144.499720	    0.000213	   -0.017383	    0.000219	   -0.173825	    0.002188
-4551.002000	    1.899905	  131.955415	    0.000270	  156.878965	    0.000642	   24.493275	    0.000412	  -25.163275	    0.000589	   14.441719	    0.000046	  144.417190	    0.000456	   -0.033500	    0.000050	   -0.335000	    0.000500
-4470.922000	    1.899933	  131.871435	    0.000425	  156.890445	    0.000868	   24.351100	    0.000279	  -24.937675	    0.000525	   14.438094	    0.000065	  144.380940	    0.000647	   -0.029329	    0.000040	   -0.293287	    0.000402
-4390.622000	    1.899878	  131.853930	    0.000482	  156.813190	    0.000227	   24.554450	    0.000615	  -24.819555	    0.001031	   14.433356	    0.000035	  144.333560	    0.000355	   -0.013255	    0.000082	   -0.132552	    0.000823
-4309.432000	    1.899850	  131.874825	    0.000128	  156.809065	    0.000718	   24.423295	    0.000389	  -24.838010	    0.001455	   14.434195	    0.000042	  144.341945	    0.000423	   -0.020736	    0.000092	   -0.207358	    0.000922
-4229.686000	    1.900016	  131.776755	    0.000512	  156.909075	    0.000566	   24.672330	    0.000216	  -24.793320	    0.001260	   14.434292	    0.000054	  144.342915	    0.000539	   -0.006050	    0.000074	   -0.060495	    0.000738
-4149.828000	    1.899892	  131.889145	    0.000283	  157.093190	    0.000317	   24.284880	    0.001416	  -24.741495	    0.001426	   14.449117	    0.000030	  144.491168	    0.000300	   -0.022831	    0.000142	   -0.228307	    0.001421
-4069.638000	    1.899975	  131.670585	    0.000299	  156.856630	    0.000977	   24.443430	    0.000299	  -24.950025	    0.002399	   14.426361	    0.000064	  144.263607	    0.000638	   -0.025330	    0.000135	   -0.253298	    0.001349
-3989.558000	    1.900016	  131.749415	    0.000645	  156.819130	    0.001314	   24.672075	    0.001869	  -24.757840	    0.005541	   14.428427	    0.000098	  144.284272	    0.000980	   -0.004288	    0.000370	   -0.042883	    0.003705
-3909.257000	    1.899878	  131.754905	    0.000269	  156.821330	    0.001141	   24.689255	    0.000507	  -24.545085	    0.000709	   14.428812	    0.000070	  144.288117	    0.000705	    0.007208	    0.000061	    0.072085	    0.000608
-3827.402000	    1.900002	  131.826910	    0.000361	  156.855745	    0.000507	   24.732730	    0.000936	  -24.812840	    0.000871	   14.434133	    0.000043	  144.341328	    0.000434	   -0.004005	    0.000090	   -0.040055	    0.000903
-3746.990000	    1.899961	  131.705155	    0.000292	  156.831055	    0.000457	   24.843460	    0.000839	  -24.894765	    0.000806	   14.426810	    0.000037	  144.268105	    0.000375	   -0.002565	    0.000082	   -0.025652	    0.000822
-3667.243000	    1.899919	  131.639445	    0.000156	  156.842650	    0.000103	   24.782660	    0.000750	  -24.738535	    0.001315	   14.424105	    0.000013	  144.241047	    0.000130	    0.002206	    0.000103	    0.022062	    0.001033
-3587.275000	    1.900044	  131.665895	    0.000149	  156.826945	    0.000486	   24.242445	    0.000707	  -24.651405	    0.000662	   14.424642	    0.000032	  144.246420	    0.000318	   -0.020448	    0.000068	   -0.204480	    0.000685
-3507.306000	    1.900030	  131.817495	    0.000311	  156.494545	    0.000271	   24.503055	    0.001599	  -25.014910	    0.000875	   14.415602	    0.000029	  144.156020	    0.000291	   -0.025593	    0.000124	   -0.255927	    0.001237
-3427.227000	    1.899975	  131.652245	    0.000448	  156.721725	    0.000233	   24.563455	    0.000270	  -24.801690	    0.000505	   14.418698	    0.000034	  144.186985	    0.000340	   -0.011912	    0.000039	   -0.119117	    0.000387
-3347.147000	    1.899947	  131.675390	    0.000550	  156.609320	    0.000529	   24.264365	    0.000291	  -24.754500	    0.000417	   14.414236	    0.000054	  144.142355	    0.000540	   -0.024507	    0.000035	   -0.245068	    0.000354
-3265.736000	    1.899933	  131.595735	    0.000183	  156.675095	    0.000878	   24.462995	    0.000221	  -24.685355	    0.001089	   14.413541	    0.000053	  144.135415	    0.000530	   -0.011118	    0.000066	   -0.111180	    0.000655
-3185.435000	    1.900016	  131.654190	    0.000732	  156.392045	    0.000335	   24.591730	    0.000841	  -24.522505	    0.000339	   14.402312	    0.000053	  144.023118	    0.000533	    0.003461	    0.000059	    0.034613	    0.000590
-3105.356000	    1.899947	  131.622745	    0.000193	  156.536835	    0.000155	   24.238205	    0.000979	  -24.649480	    0.001148	   14.407979	    0.000017	  144.079790	    0.000174	   -0.020564	    0.000106	   -0.205637	    0.001063
-3025.276000	    1.900072	  131.713525	    0.000386	  156.601210	    0.000107	   24.526110	    0.000347	  -24.809360	    0.000579	   14.415737	    0.000025	  144.157367	    0.000247	   -0.014163	    0.000046	   -0.141625	    0.000463
-2944.974000	    1.899989	  131.455280	    0.000232	  156.755545	    0.000707	   24.491895	    0.000819	  -24.802050	    0.002459	   14.410541	    0.000047	  144.105412	    0.000470	   -0.015508	    0.000164	   -0.155078	    0.001639
-2865.006000	    1.900002	  131.472210	    0.000695	  156.700295	    0.000259	   24.348505	    0.000465	  -24.711730	    0.000797	   14.408625	    0.000048	  144.086253	    0.000477	   -0.018161	    0.000063	   -0.181613	    0.000631
-2784.150000	    1.900127	  131.420610	    0.000298	  156.581630	    0.000589	   24.809195	    0.001263	  -24.738475	    0.000743	   14.400112	    0.000044	  144.001120	    0.000444	    0.003536	    0.000100	    0.035360	    0.001003
-2704.182000	    1.900030	  131.462900	    0.000160	  156.663290	    0.000590	   25.064450	    0.000554	  -24.889075	    0.000450	   14.406309	    0.000038	  144.063095	    0.000375	    0.008769	    0.000050	    0.087687	    0.000502
-2623.436000	    1.899919	  131.597815	    0.000086	  156.689180	    0.000576	   24.612400	    0.000470	  -24.838010	    0.001157	   14.414350	    0.000033	  144.143497	    0.000331	   -0.011281	    0.000081	   -0.112805	    0.000814
-2543.690000	    1.899989	  131.459800	    0.000373	  156.570410	    0.000390	   24.896415	    0.000355	  -25.008415	    0.001069	   14.401510	    0.000038	  144.015105	    0.000381	   -0.005600	    0.000071	   -0.056000	    0.000712
-2463.167000	    1.900016	  131.367075	    0.000261	  156.745800	    0.000436	   24.955595	    0.000853	  -24.271365	    0.000577	   14.405644	    0.000035	  144.056437	    0.000349	    0.034211	    0.000071	    0.342115	    0.000715
-2382.532000	    1.899989	  131.568180	    0.000164	  156.374920	    0.001126	   24.980170	    0.000615	  -24.795810	    0.000929	   14.397155	    0.000064	  143.971550	    0.000645	    0.009218	    0.000077	    0.092180	    0.000772
-2301.344000	    1.899919	  131.405305	    0.002609	  156.506055	    0.002036	   24.715400	    0.002327	  -24.993445	    0.001289	   14.395568	    0.000232	  143.955680	    0.002322	   -0.013902	    0.000181	   -0.139022	    0.001808
-2221.264000	    1.900016	  131.399875	    0.000575	  156.692555	    0.000586	   25.023640	    0.000287	  -25.067410	    0.000663	   14.404622	    0.000058	  144.046215	    0.000581	   -0.002189	    0.000048	   -0.021885	    0.000475
-2141.073000	    1.899919	  131.196375	    0.000180	  156.561560	    0.000481	   24.873925	    0.000347	  -24.451945	    0.002414	   14.387897	    0.000033	  143.878967	    0.000330	    0.021099	    0.000138	    0.210990	    0.001381
-2060.772000	    1.899961	  131.390205	    0.000143	  156.367980	    0.000256	   25.036530	    0.000413	  -24.681935	    0.001102	   14.387909	    0.000020	  143.879092	    0.000200	    0.017730	    0.000076	    0.177297	    0.000758
-1981.026000	    1.900044	  131.307195	    0.000341	  156.459295	    0.000259	   24.922650	    0.000411	  -24.544240	    0.000284	   14.388324	    0.000030	  143.883245	    0.000300	    0.018921	    0.000035	    0.189205	    0.000347
-1901.279000	    1.899919	  131.398950	    0.000311	  156.345265	    0.000687	   24.743520	    0.000347	  -24.608915	    0.001120	   14.387211	    0.000050	  143.872107	    0.000499	    0.006730	    0.000073	    0.067303	    0.000734
-1821.199000	    1.899892	  131.243590	    0.000446	  156.190865	    0.000243	   24.694100	    0.000514	  -24.653375	    0.000695	   14.371723	    0.000034	  143.717227	    0.000345	    0.002036	    0.000060	    0.020362	    0.000605
-1739.456000	    1.899961	  131.299100	    0.000213	  156.314055	    0.000258	   24.182010	    0.000311	  -24.796070	    0.001316	   14.380658	    0.000024	  143.806578	    0.000235	   -0.030703	    0.000081	   -0.307030	    0.000814
-1659.155000	    1.900002	  131.204610	    0.000135	  156.307450	    0.000429	   24.532820	    0.004896	  -24.630805	    0.000994	   14.375603	    0.000028	  143.756030	    0.000282	   -0.004899	    0.000294	   -0.048993	    0.002945
-1578.742000	    1.900044	  131.190480	    0.000178	  156.226135	    0.000436	   24.492125	    0.000356	  -24.521450	    0.001104	   14.370831	    0.000031	  143.708307	    0.000307	   -0.001466	    0.000073	   -0.014662	    0.000730
-1497.997000	    1.900072	  131.202140	    0.000725	  156.209955	    0.000481	   24.344410	    0.000657	  -24.264190	    0.000575	   14.370605	    0.000060	  143.706048	    0.000603	    0.004011	    0.000062	    0.040110	    0.000616
-1418.472000	    1.900155	  131.386760	    0.000479	  155.831100	    0.000512	   24.328230	    0.000673	  -24.609525	    0.004588	   14.360893	    0.000050	  143.608930	    0.000495	   -0.014065	    0.000263	   -0.140647	    0.002631
-1339.059000	    1.900100	  131.225010	    0.000123	  156.153415	    0.000517	   24.502670	    0.000741	  -24.690795	    0.000607	   14.368921	    0.000032	  143.689212	    0.000320	   -0.009406	    0.000067	   -0.094062	    0.000674
-1258.424000	    1.900016	  131.061065	    0.000209	  156.050655	    0.000579	   24.502295	    0.000796	  -24.443990	    0.001345	   14.355586	    0.000039	  143.555860	    0.000394	    0.002915	    0.000107	    0.029153	    0.001070
-1178.456000	    1.899739	  131.097125	    0.000203	  155.981230	    0.000433	   24.565630	    0.001092	  -24.406525	    0.000811	   14.353918	    0.000032	  143.539177	    0.000318	    0.007955	    0.000095	    0.079553	    0.000951
-1098.043000	    1.899836	  131.185530	    0.000333	  155.947865	    0.000362	   24.733445	    0.000157	  -24.293545	    0.001337	   14.356670	    0.000035	  143.566697	    0.000348	    0.021995	    0.000075	    0.219950	    0.000747
-1017.409000	    1.899919	  131.033150	    0.000121	  155.837665	    0.000203	   24.663240	    0.000280	  -24.635355	    0.000645	   14.343541	    0.000016	  143.435407	    0.000162	    0.001394	    0.000046	    0.013942	    0.000463
 -936.553600	    1.899892	  130.857880	    0.000361	  156.120445	    0.000497	   24.884780	    0.000186	  -24.395120	    0.001117	   14.348916	    0.000043	  143.489162	    0.000429	    0.024483	    0.000065	    0.244830	    0.000651
 -856.695800	    1.899919	  130.946860	    0.000373	  156.014445	    0.000317	   24.751775	    0.000485	  -24.489890	    0.001460	   14.348065	    0.000034	  143.480652	    0.000345	    0.013094	    0.000097	    0.130942	    0.000973
 -775.728900	    1.899961	  130.940215	    0.000473	  155.820580	    0.000106	   24.546035	    0.000529	  -24.505975	    0.000542	   14.338040	    0.000029	  143.380398	    0.000289	    0.002003	    0.000054	    0.020030	    0.000536
 -696.093000	    1.899961	  130.800115	    0.000317	  155.914305	    0.000242	   24.965185	    0.002986	  -24.641910	    0.000239	   14.335721	    0.000028	  143.357210	    0.000279	    0.016164	    0.000161	    0.161638	    0.001612
 -616.124300	    1.899989	  130.915080	    0.001753	  155.818445	    0.002096	   24.985105	    0.002642	  -24.443110	    0.001510	   14.336676	    0.000192	  143.366762	    0.001925	    0.027100	    0.000208	    0.270997	    0.002076
 -536.044800	    1.900100	  130.814235	    0.000234	  155.783610	    0.000494	   24.653900	    0.001053	  -24.818650	    0.000917	   14.329892	    0.000036	  143.298923	    0.000364	   -0.008238	    0.000099	   -0.082375	    0.000985
 -455.743500	    1.900058	  130.637500	    0.002521	  155.761245	    0.000621	   24.859185	    0.000402	  -24.520905	    0.001056	   14.319937	    0.000157	  143.199372	    0.001571	    0.016914	    0.000073	    0.169140	    0.000729
 -375.331200	    1.899947	  130.674440	    0.000385	  155.792365	    0.000330	   24.779500	    0.000320	  -24.692715	    0.000107	   14.323340	    0.000036	  143.233403	    0.000358	    0.004339	    0.000021	    0.043393	    0.000213
 -295.140800	    1.899905	  130.584460	    0.002496	  155.837355	    0.000407	   24.849300	    0.000885	  -24.472400	    0.000352	   14.321091	    0.000145	  143.210907	    0.001452	    0.018845	    0.000062	    0.188450	    0.000619
 -214.173900	    1.899892	  130.556025	    0.001073	  155.809670	    0.000417	   24.769855	    0.000347	  -24.654665	    0.000810	   14.318285	    0.000074	  143.182847	    0.000745	    0.005759	    0.000058	    0.057595	    0.000578
 -133.983500	    1.899850	  130.622000	    0.000187	  155.571870	    0.000234	   24.686690	    0.000275	  -24.713020	    0.000300	   14.309694	    0.000021	  143.096935	    0.000211	   -0.001317	    0.000029	   -0.013165	    0.000287
  -53.349380	    1.900044	  130.536680	    0.000404	  155.628355	    0.000704	   24.900175	    0.000599	  -24.443335	    0.000586	   14.308252	    0.000055	  143.082517	    0.000554	    0.022842	    0.000059	    0.228420	    0.000592
   53.571210	    1.899975	  130.682870	    0.001054	  155.602370	    0.000725	   24.711940	    0.000692	  -24.500360	    0.000443	   14.314262	    0.000089	  143.142620	    0.000890	    0.010579	    0.000057	    0.105790	    0.000568
  134.094400	    1.900044	  130.757375	    0.000123	  155.598650	    0.000856	   24.420925	    0.000688	  -24.524750	    0.001773	   14.317801	    0.000049	  143.178012	    0.000489	   -0.005191	    0.000123	   -0.051913	    0.001230
  214.173900	    1.900016	  130.708470	    0.000373	  155.647605	    0.000227	   24.554065	    0.000218	  -24.709070	    0.000549	   14.317804	    0.000030	  143.178038	    0.000300	   -0.007750	    0.000038	   -0.077502	    0.000383
  295.140800	    1.899933	  130.704025	    0.000191	  155.613365	    0.000677	   24.842840	    0.000497	  -24.666205	    0.001322	   14.315869	    0.000043	  143.158695	    0.000434	    0.008832	    0.000091	    0.088318	    0.000909
  375.331200	    1.899989	  130.770785	    0.000094	  155.985275	    0.000417	   24.838955	    0.000466	  -24.594195	    0.000896	   14.337803	    0.000026	  143.378030	    0.000256	    0.012238	    0.000068	    0.122380	    0.000681
  455.854400	    1.899975	  130.774120	    0.000079	  155.863140	    0.000983	   24.835460	    0.001044	  -24.740440	    0.001038	   14.331863	    0.000053	  143.318630	    0.000531	    0.004751	    0.000104	    0.047510	    0.001041
  535.933900	    1.899836	  130.741895	    0.000199	  155.790875	    0.000369	   24.911975	    0.000263	  -24.597435	    0.000852	   14.326639	    0.000028	  143.266385	    0.000284	    0.015727	    0.000056	    0.157270	    0.000557
  616.124300	    1.899933	  130.720160	    0.000412	  156.027170	    0.000400	   25.027395	    0.000237	  -24.525110	    0.000614	   14.337366	    0.000041	  143.373665	    0.000406	    0.025114	    0.000043	    0.251143	    0.000425
  696.093000	    1.899905	  130.829420	    0.000318	  155.814120	    0.000423	   24.813090	    0.000176	  -24.771915	    0.000737	   14.332177	    0.000037	  143.321770	    0.000370	    0.002059	    0.000046	    0.020588	    0.000456
  775.728900	    1.900169	  130.897595	    0.000171	  155.876675	    0.000203	   25.205290	    0.000354	  -24.472370	    0.000659	   14.338713	    0.000019	  143.387135	    0.000187	    0.036646	    0.000051	    0.366460	    0.000506
  856.695800	    1.899892	  130.984590	    0.000184	  155.870875	    0.000423	   24.861290	    0.000356	  -24.620180	    0.000459	   14.342773	    0.000030	  143.427732	    0.000304	    0.012056	    0.000041	    0.120555	    0.000408
  936.553600	    1.899975	  130.853490	    0.000358	  156.014245	    0.000326	   24.726570	    0.000574	  -24.596745	    0.000553	   14.343387	    0.000034	  143.433867	    0.000342	    0.006491	    0.000056	    0.064912	    0.000564
 1017.188000	    1.899933	  130.876600	    0.001108	  156.033310	    0.001367	   24.816730	    0.001963	  -24.594775	    0.002228	   14.345495	    0.000124	  143.454955	    0.001238	    0.011098	    0.000210	    0.110978	    0.002096
 1097.932000	    1.900002	  130.944595	    0.000241	  156.178375	    0.000221	   24.753340	    0.000299	  -24.744510	    0.000788	   14.356148	    0.000023	  143.561485	    0.000231	    0.000441	    0.000054	    0.004415	    0.000544
 1178.344000	    1.899947	  131.032455	    0.000094	  156.158780	    0.000402	   24.572955	    0.000373	  -24.423245	    0.000611	   14.359562	    0.000025	  143.595618	    0.000248	    0.007485	    0.000049	    0.074855	    0.000492
 1258.313000	    1.899961	  131.136285	    0.000350	  156.177555	    0.000725	   24.722230	    0.001340	  -24.398570	    0.000813	   14.365692	    0.000054	  143.656920	    0.000537	    0.016183	    0.000108	    0.161830	    0.001076
 1338.836000	    1.900072	  131.088990	    0.000543	  156.188465	    0.000601	   24.722375	    0.000497	  -24.366065	    0.000481	   14.363873	    0.000057	  143.638728	    0.000572	    0.017815	    0.000049	    0.178155	    0.000489
 1418.362000	    1.900016	  131.191420	    0.000260	  156.085950	    0.000464	   24.578955	    0.000333	  -24.165570	    0.001073	   14.363869	    0.000036	  143.638685	    0.000362	    0.020669	    0.000070	    0.206692	    0.000703
 1497.887000	    1.899947	  131.207760	    0.000345	  156.030655	    0.000515	   24.555155	    0.000334	  -23.866480	    0.001433	   14.361921	    0.000043	  143.619208	    0.000430	    0.034434	    0.000088	    0.344337	    0.000884
 1578.077000	    1.899933	  131.381060	    0.000288	  155.977560	    0.000282	   24.530870	    0.000349	  -24.259705	    0.000534	   14.367931	    0.000029	  143.679310	    0.000285	    0.013558	    0.000044	    0.135582	    0.000442
 1659.044000	    1.899975	  131.290490	    0.001748	  156.045130	    0.000388	   24.608350	    0.000468	  -24.279855	    0.000581	   14.366781	    0.000107	  143.667810	    0.001068	    0.016425	    0.000052	    0.164248	    0.000525
 1739.234000	    1.899905	  131.225570	    0.000106	  156.333595	    0.000454	   25.032695	    0.000512	  -24.239775	    0.001206	   14.377958	    0.000028	  143.779583	    0.000280	    0.039646	    0.000086	    0.396460	    0.000859
 1820.978000	    1.899933	  131.330800	    0.000254	  156.169300	    0.000617	   24.770300	    0.000366	  -24.384065	    0.001206	   14.375005	    0.000044	  143.750050	    0.000435	    0.019312	    0.000079	    0.193118	    0.000786
 1900.946000	    1.900044	  131.230210	    0.000200	  156.205850	    0.000397	   24.701885	    0.001227	  -24.271580	    0.000477	   14.371803	    0.000030	  143.718030	    0.000299	    0.021515	    0.000085	    0.215153	    0.000852
 1980.804000	    1.899989	  131.432725	    0.001412	  156.294165	    0.000577	   24.724515	    0.000427	  -24.373805	    0.000719	   14.386344	    0.000099	  143.863445	    0.000994	    0.017536	    0.000057	    0.175355	    0.000573
 2060.551000	    1.899989	  131.386845	    0.000261	  156.301585	    0.000133	   24.701275	    0.000336	  -24.081115	    0.000745	   14.384422	    0.000020	  143.844215	    0.000197	    0.031008	    0.000054	    0.310080	    0.000541
 2140.852000	    1.899989	  131.428510	    0.000507	  156.166075	    0.000151	   24.721845	    0.000430	  -24.022715	    0.001000	   14.379729	    0.000033	  143.797292	    0.000329	    0.034957	    0.000071	    0.349565	    0.000715
 2221.042000	    1.900016	  131.579320	    0.000271	  156.217245	    0.000432	   24.631495	    0.000582	  -24.077805	    0.001971	   14.389828	    0.000035	  143.898282	    0.000351	    0.027685	    0.000128	    0.276845	    0.001276
 2301.122000	    1.899919	  131.578035	    0.000177	  156.249725	    0.000260	   24.710005	    0.000342	  -24.087680	    0.000981	   14.391388	    0.000022	  143.913880	    0.000218	    0.031116	    0.000066	    0.311162	    0.000662
 2382.310000	    1.900100	  131.532055	    0.000488	  156.245975	    0.000737	   24.650465	    0.000533	  -24.107450	    0.000835	   14.388901	    0.000061	  143.889015	    0.000613	    0.027151	    0.000068	    0.271508	    0.000684
 2462.945000	    1.900030	  131.621610	    0.000315	  156.158700	    0.000351	   24.415515	    0.000800	  -24.250230	    0.000908	   14.389015	    0.000033	  143.890155	    0.000333	    0.008264	    0.000085	    0.082642	    0.000854
 2543.357000	    1.900100	  131.479885	    0.000456	  156.402960	    0.000884	   24.739585	    0.000429	  -24.193015	    0.000958	   14.394142	    0.000067	  143.941422	    0.000670	    0.027328	    0.000069	    0.273285	    0.000694
 2623.769000	    1.900016	  131.490160	    0.000133	  156.321925	    0.000398	   24.768025	    0.000486	  -24.159450	    0.000352	   14.390604	    0.000027	  143.906042	    0.000266	    0.030429	    0.000042	    0.304287	    0.000419
 2703.849000	    1.900072	  131.607280	    0.000614	  156.418145	    0.000890	   24.829885	    0.000276	  -24.196885	    0.001011	   14.401271	    0.000075	  144.012712	    0.000752	    0.031650	    0.000064	    0.316500	    0.000644
 2783.706000	    1.900030	  131.630105	    0.000206	  156.377430	    0.000390	   24.747795	    0.000238	  -24.096220	    0.000618	   14.400377	    0.000030	  144.003768	    0.000298	    0.032579	    0.000043	    0.325787	    0.000428
 2864.673000	    1.899989	  131.495710	    0.000160	  156.437875	    0.000137	   24.755530	    0.000552	  -24.201535	    0.000816	   14.396679	    0.000015	  143.966792	    0.000149	    0.027700	    0.000068	    0.276998	    0.000684
 2944.531000	    1.900002	  131.680585	    0.000106	  156.448130	    0.000336	   24.855945	    0.000230	  -24.135360	    0.001448	   14.406436	    0.000022	  144.064357	    0.000221	    0.036029	    0.000084	    0.360293	    0.000839
 3024.832000	    1.899989	  131.647425	    0.000070	  156.527170	    0.000519	   24.972265	    0.000508	  -24.113175	    0.000584	   14.408730	    0.000029	  144.087297	    0.000294	    0.042954	    0.000055	    0.429545	    0.000546
 3104.913000	    1.900002	  131.628815	    0.000271	  156.463670	    0.000747	   24.763590	    0.000335	  -23.916005	    0.000513	   14.404624	    0.000051	  144.046243	    0.000509	    0.042379	    0.000042	    0.423792	    0.000424
 3184.992000	    1.899919	  131.790900	    0.000333	  156.452380	    0.000391	   24.591400	    0.000481	  -24.019885	    0.000529	   14.412164	    0.000036	  144.121640	    0.000362	    0.028576	    0.000050	    0.285757	    0.000505
 3265.404000	    1.899989	  131.768040	    0.001240	  156.423650	    0.000318	   24.456770	    0.001379	  -24.182625	    0.002339	   14.409585	    0.000078	  144.095845	    0.000779	    0.013707	    0.000186	    0.137072	    0.001859
 3346.703000	    1.899975	  131.746490	    0.000435	  156.524675	    0.001554	   24.880520	    0.001837	  -24.070035	    0.001475	   14.413558	    0.000099	  144.135582	    0.000994	    0.040524	    0.000166	    0.405242	    0.001656
 3426.782000	    1.900030	  131.842040	    0.000187	  156.654005	    0.000493	   24.672335	    0.000221	  -24.311175	    0.000388	   14.424802	    0.000034	  144.248022	    0.000340	    0.018058	    0.000030	    0.180580	    0.000305
 3506.862000	    1.899933	  131.783565	    0.000199	  156.618695	    0.002163	   24.835635	    0.002410	  -24.065695	    0.002262	   14.420113	    0.000118	  144.201130	    0.001181	    0.038497	    0.000234	    0.384970	    0.002336
 3586.720000	    1.900030	  131.792560	    0.001167	  156.566775	    0.000404	   25.101155	    0.000575	  -24.304435	    0.001193	   14.417967	    0.000079	  144.179668	    0.000785	    0.039836	    0.000088	    0.398360	    0.000884
 3666.799000	    1.899961	  131.640790	    0.000094	  156.563390	    0.000433	   24.848210	    0.000377	  -24.008685	    0.001134	   14.410209	    0.000026	  144.102090	    0.000263	    0.041976	    0.000076	    0.419763	    0.000756
 3746.436000	    1.900155	  131.804475	    0.000178	  156.601440	    0.000407	   24.962900	    0.001723	  -24.089220	    0.000443	   14.420296	    0.000029	  144.202957	    0.000293	    0.043684	    0.000108	    0.436840	    0.001083
 3826.959000	    1.900155	  131.768120	    0.000544	  156.580830	    0.000874	   24.955245	    0.000598	  -24.307685	    0.001248	   14.417447	    0.000071	  144.174475	    0.000709	    0.032378	    0.000092	    0.323780	    0.000923
 3908.702000	    1.899947	  131.794460	    0.000444	  156.565985	    0.000077	   24.779355	    0.000165	  -24.027015	    0.000639	   14.418022	    0.000026	  144.180223	    0.000260	    0.037617	    0.000040	    0.376170	    0.000402
 3989.115000	    1.900030	  131.960745	    0.000393	  156.438350	    0.001044	   24.840540	    0.000875	  -24.042140	    0.001203	   14.419955	    0.000072	  144.199547	    0.000718	    0.039920	    0.000104	    0.399200	    0.001039
 4069.083000	    1.900100	  131.894520	    0.000336	  156.633795	    0.000581	   24.775125	    0.000851	  -24.085100	    0.000978	   14.426416	    0.000046	  144.264158	    0.000459	    0.034501	    0.000091	    0.345012	    0.000915
 4149.273000	    1.900114	  131.901355	    0.001463	  156.607825	    0.000285	   24.790360	    0.000856	  -23.979705	    0.000489	   14.425459	    0.000087	  144.254590	    0.000874	    0.040533	    0.000067	    0.405327	    0.000672
 4229.131000	    1.899989	  131.936090	    0.000417	  156.849185	    0.000185	   24.688115	    0.000279	  -23.786135	    0.001328	   14.439264	    0.000030	  144.392637	    0.000301	    0.045099	    0.000080	    0.450990	    0.000804
 4308.877000	    1.899975	  132.063260	    0.000499	  156.519335	    0.000935	   24.587130	    0.001129	  -23.805985	    0.000730	   14.429130	    0.000072	  144.291297	    0.000717	    0.039057	    0.000093	    0.390572	    0.000929
 4389.956000	    1.900044	  132.004470	    0.000283	  156.754650	    0.000356	   24.810850	    0.001393	  -23.863115	    0.000707	   14.437956	    0.000032	  144.379560	    0.000319	    0.047387	    0.000105	    0.473868	    0.001050
 4470.257000	    1.899961	  131.924715	    0.000179	  156.688170	    0.000452	   24.844110	    0.000517	  -24.064780	    0.000324	   14.430644	    0.000032	  144.306442	    0.000316	    0.038966	    0.000042	    0.389665	    0.000420
 4550.336000	    1.899919	  132.015940	    0.000448	  156.516010	    0.000293	   24.683645	    0.002403	  -24.037085	    0.000507	   14.426598	    0.000037	  144.265975	    0.000370	    0.032328	    0.000146	    0.323280	    0.001455
 4630.638000	    1.900030	  132.033765	    0.000368	  156.718175	    0.000361	   24.818780	    0.000684	  -23.946915	    0.000476	   14.437597	    0.000036	  144.375970	    0.000364	    0.043593	    0.000058	    0.435932	    0.000580
 4711.272000	    1.900030	  132.029335	    0.000295	  156.745955	    0.000691	   24.888900	    0.000946	  -23.954855	    0.001850	   14.438764	    0.000049	  144.387645	    0.000493	    0.046702	    0.000140	    0.467023	    0.001398
 4791.795000	    1.900002	  131.986885	    0.000548	  156.666775	    0.000381	   24.916140	    0.000390	  -23.920940	    0.000483	   14.432683	    0.000046	  144.326830	    0.000464	    0.049760	    0.000044	    0.497600	    0.000436
 4873.428000	    1.900058	  132.012015	    0.000403	  156.779800	    0.000414	   25.009665	    0.001416	  -23.792280	    0.000859	   14.439591	    0.000041	  144.395907	    0.000409	    0.060869	    0.000114	    0.608693	    0.001137
 4953.507000	    1.900044	  132.046465	    0.000696	  156.731060	    0.000169	   24.677155	    0.000562	  -23.870615	    0.000432	   14.438876	    0.000043	  144.388763	    0.000432	    0.040327	    0.000050	    0.403270	    0.000497
 5033.585000	    1.900002	  132.048335	    0.000192	  156.719525	    0.000442	   24.594020	    0.000332	  -24.088815	    0.000581	   14.438393	    0.000032	  144.383930	    0.000317	    0.025260	    0.000046	    0.252603	    0.000456
 5113.555000	    1.900030	  132.004470	    0.000330	  156.745310	    0.000354	   24.844210	    0.000206	  -24.045190	    0.000450	   14.437489	    0.000034	  144.374890	    0.000342	    0.039951	    0.000033	    0.399510	    0.000328
 5192.969000	    1.900155	  131.844805	    0.000230	  156.997145	    0.000250	   25.221570	    0.000215	  -23.947810	    0.001399	   14.442097	    0.000024	  144.420975	    0.000240	    0.063688	    0.000081	    0.636880	    0.000807
 5273.603000	    1.900044	  132.007640	    0.000355	  156.856815	    0.000347	   25.062055	    0.000625	  -23.830295	    0.000527	   14.443223	    0.000035	  144.432227	    0.000351	    0.061588	    0.000058	    0.615880	    0.000576
 5353.793000	    1.899919	  132.030145	    0.000750	  156.919525	    0.000796	   25.147780	    0.000291	  -23.733540	    0.000666	   14.447484	    0.000077	  144.474835	    0.000773	    0.070712	    0.000048	    0.707120	    0.000478
 5434.649000	    1.900044	  132.036910	    0.000930	  156.822640	    0.000880	   24.990145	    0.000427	  -24.050875	    0.000598	   14.442977	    0.000091	  144.429775	    0.000905	    0.046964	    0.000051	    0.469635	    0.000512
 5514.839000	    1.900058	  132.078570	    0.000256	  156.927320	    0.000470	   24.986600	    0.000233	  -24.065005	    0.000302	   14.450295	    0.000036	  144.502945	    0.000363	    0.046080	    0.000027	    0.460798	    0.000267
 5595.251000	    1.900183	  132.006240	    0.000292	  156.990190	    0.000305	   24.974650	    0.002355	  -23.961285	    0.001578	   14.449822	    0.000030	  144.498215	    0.000299	    0.050668	    0.000197	    0.506683	    0.001967
 5675.665000	    1.900058	  132.110930	    0.000265	  156.932770	    0.000129	   25.010080	    0.000330	  -23.967065	    0.000856	   14.452185	    0.000020	  144.521850	    0.000197	    0.052151	    0.000059	    0.521508	    0.000593
 5754.635000	    1.899919	  132.093670	    0.000442	  156.856675	    0.000465	   24.800315	    0.000483	  -24.204145	    0.000860	   14.447517	    0.000045	  144.475172	    0.000454	    0.029809	    0.000067	    0.298085	    0.000671
 5835.269000	    1.900002	  132.031055	    0.000448	  156.990815	    0.000119	   25.016545	    0.000373	  -23.991690	    0.000907	   14.451093	    0.000028	  144.510935	    0.000284	    0.051243	    0.000064	    0.512428	    0.000640
 5916.348000	    1.899989	  132.142865	    0.001030	  156.965725	    0.000218	   24.886505	    0.000174	  -23.889565	    0.000563	   14.455430	    0.000062	  144.554295	    0.000624	    0.049847	    0.000037	    0.498470	    0.000368
 5995.982000	    1.899905	  132.195995	    0.000487	  156.817150	    0.000294	   24.976930	    0.000222	  -23.916655	    0.000376	   14.450657	    0.000039	  144.506573	    0.000390	    0.053014	    0.000030	    0.530137	    0.000299
 6075.952000	    1.900100	  132.107270	    0.000264	  157.016215	    0.001835	   25.123060	    0.000352	  -24.059075	    0.000775	   14.456174	    0.000105	  144.561742	    0.001049	    0.053199	    0.000056	    0.531993	    0.000563
 6156.252000	    1.900030	  132.128310	    0.000369	  157.031095	    0.000521	   25.079925	    0.000340	  -24.137545	    0.000179	   14.457970	    0.000045	  144.579702	    0.000445	    0.047119	    0.000026	    0.471190	    0.000260
 6236.554000	    1.900016	  132.022035	    0.000417	  156.955815	    0.000256	   25.277235	    0.000435	  -24.083840	    0.001113	   14.448893	    0.000034	  144.488925	    0.000337	    0.059670	    0.000077	    0.596698	    0.000774
 6316.633000	    1.900002	  131.971005	    0.000520	  157.037945	    0.001615	   25.220825	    0.001161	  -24.263935	    0.000225	   14.450447	    0.000107	  144.504475	    0.001068	    0.047845	    0.000069	    0.478445	    0.000693
 6396.824000	    1.900127	  132.077345	    0.000456	  157.115550	    0.000631	   25.103605	    0.001170	  -24.219610	    0.001464	   14.459645	    0.000054	  144.596447	    0.000544	    0.044200	    0.000132	    0.441998	    0.001317
 6477.901000	    1.900100	  132.020390	    0.000489	  157.135925	    0.000837	   25.253005	    0.000417	  -24.073930	    0.001521	   14.457816	    0.000066	  144.578158	    0.000663	    0.058954	    0.000097	    0.589538	    0.000969
 6557.981000	    1.900100	  132.147555	    0.000216	  157.070655	    0.000486	   25.146955	    0.000435	  -24.261120	    0.000521	   14.460911	    0.000035	  144.609105	    0.000351	    0.044292	    0.000048	    0.442918	    0.000478
 6638.394000	    1.900016	  132.053385	    0.000256	  157.082265	    0.000774	   25.015825	    0.000550	  -24.126270	    0.000563	   14.456782	    0.000052	  144.567825	    0.000515	    0.044478	    0.000056	    0.444777	    0.000557
 6718.472000	    1.899947	  132.202380	    0.000574	  156.996885	    0.000334	   25.045655	    0.000458	  -24.140450	    0.000723	   14.459963	    0.000045	  144.599632	    0.000454	    0.045260	    0.000059	    0.452602	    0.000591
 6798.331000	    1.900114	  132.164305	    0.000203	  157.006970	    0.000290	   25.292150	    0.000520	  -24.078330	    0.001334	   14.458564	    0.000025	  144.585638	    0.000247	    0.060691	    0.000093	    0.606910	    0.000927
 6878.632000	    1.900127	  132.134910	    0.000212	  157.048460	    0.000322	   24.968195	    0.000557	  -24.107100	    0.000294	   14.459169	    0.000027	  144.591685	    0.000267	    0.043055	    0.000043	    0.430548	    0.000426
 6960.264000	    1.900044	  132.227615	    0.000266	  156.889945	    0.000308	   25.017630	    0.002792	  -24.088080	    0.000740	   14.455878	    0.000029	  144.558780	    0.000287	    0.046477	    0.000177	    0.464775	    0.001766
 7041.010000	    1.899905	  132.209125	    0.000278	  157.059455	    0.000522	   24.985360	    0.000572	  -24.088400	    0.003234	   14.463429	    0.000040	  144.634290	    0.000400	    0.044848	    0.000190	    0.448480	    0.001903
 7121.311000	    1.899975	  132.124875	    0.000293	  157.129805	    0.000241	   25.014055	    0.000154	  -24.123985	    0.002091	   14.462734	    0.000027	  144.627340	    0.000267	    0.044504	    0.000112	    0.445035	    0.001122
 7201.612000	    1.899850	  132.171475	    0.000427	  157.068605	    0.000310	   25.004130	    0.000265	  -23.979775	    0.000491	   14.462004	    0.000037	  144.620040	    0.000368	    0.051218	    0.000038	    0.512177	    0.000378
 7282.137000	    1.899989	  132.208960	    0.000107	  157.127180	    0.000458	   25.366440	    0.000495	  -24.059915	    0.000955	   14.466807	    0.000028	  144.668070	    0.000283	    0.065326	    0.000072	    0.653263	    0.000725
 7361.991000	    1.900072	  132.046795	    0.000343	  157.158900	    0.000087	   25.044200	    0.000845	  -24.038145	    0.000484	   14.460285	    0.000022	  144.602847	    0.000215	    0.050303	    0.000066	    0.503027	    0.000665
 7442.957000	    1.900002	  132.173350	    0.000261	  157.086955	    0.000807	   25.018250	    0.000278	  -23.809785	    0.000520	   14.463015	    0.000053	  144.630153	    0.000534	    0.060423	    0.000040	    0.604232	    0.000399
 7522.819000	    1.900114	  132.284025	    0.000370	  157.107390	    0.000215	   25.049980	    0.000458	  -23.946355	    0.001467	   14.469571	    0.000029	  144.695707	    0.000292	    0.055181	    0.000096	    0.551813	    0.000962
 7603.116000	    1.900072	  132.239060	    0.000975	  157.137975	    0.000624	   25.096920	    0.002281	  -23.949405	    0.001261	   14.468852	    0.000080	  144.688517	    0.000799	    0.057376	    0.000177	    0.573758	    0.001771
 7682.978000	    1.899989	  132.217715	    0.000286	  157.182780	    0.001077	   25.195740	    0.000711	  -24.081415	    0.001303	   14.470025	    0.000068	  144.700247	    0.000681	    0.055716	    0.000101	    0.557163	    0.001007
 7763.057000	    1.900155	  132.219100	    0.002031	  157.186035	    0.000520	   25.232055	    0.003120	  -23.981005	    0.000598	   14.470257	    0.000128	  144.702567	    0.001275	    0.062552	    0.000186	    0.625525	    0.001859
 7843.798000	    1.900197	  132.212960	    0.000412	  157.300760	    0.000265	   24.972955	    0.000214	  -24.013790	    0.001191	   14.475686	    0.000034	  144.756860	    0.000339	    0.047958	    0.000070	    0.479582	    0.000703
 7923.885000	    1.900072	  132.246900	    0.000272	  157.284300	    0.000136	   25.155610	    0.000651	  -24.018960	    0.001537	   14.476560	    0.000020	  144.765600	    0.000204	    0.056833	    0.000109	    0.568325	    0.001094
 8005.512000	    1.900002	  132.214680	    0.000565	  157.099975	    0.000272	   25.121365	    0.000341	  -23.712095	    0.000589	   14.465733	    0.000042	  144.657327	    0.000418	    0.070464	    0.000047	    0.704635	    0.000465
 8085.148000	    1.900044	  132.312460	    0.000190	  156.982730	    0.000791	   25.354390	    0.000748	  -24.045995	    0.000819	   14.464759	    0.000049	  144.647595	    0.000491	    0.065420	    0.000078	    0.654198	    0.000783
 8164.784000	    1.900016	  132.264315	    0.000228	  157.152035	    0.000411	   25.386200	    0.000182	  -23.874605	    0.000589	   14.470818	    0.000032	  144.708175	    0.000319	    0.075580	    0.000039	    0.755797	    0.000385
 8244.195000	    1.900016	  132.326230	    0.000727	  157.258355	    0.001079	   25.379725	    0.000533	  -23.784120	    0.000777	   14.479229	    0.000090	  144.792292	    0.000903	    0.079780	    0.000065	    0.797803	    0.000655
 8323.170000	    1.900044	  132.235285	    0.000241	  157.193500	    0.000219	   25.282120	    0.001633	  -24.008230	    0.000849	   14.471439	    0.000023	  144.714392	    0.000230	    0.063694	    0.000124	    0.636945	    0.001241
 8404.136000	    1.899975	  132.289420	    0.000545	  157.245470	    0.000227	   25.112525	    0.000248	  -24.055545	    0.000763	   14.476745	    0.000039	  144.767445	    0.000386	    0.052849	    0.000051	    0.528490	    0.000506
 8485.771000	    1.900072	  132.245060	    0.000400	  157.136845	    0.000325	   25.086480	    0.000346	  -24.085815	    0.000376	   14.469095	    0.000036	  144.690952	    0.000363	    0.050033	    0.000036	    0.500333	    0.000361
 8566.512000	    1.899975	  132.214930	    0.000289	  157.286885	    0.000394	   25.415630	    0.000435	  -24.040780	    0.000721	   14.475091	    0.000034	  144.750907	    0.000341	    0.068742	    0.000058	    0.687425	    0.000578
 8646.816000	    1.899892	  132.247365	    0.000317	  157.343985	    0.000715	   25.423060	    0.000506	  -23.906645	    0.000856	   14.479567	    0.000052	  144.795675	    0.000516	    0.075821	    0.000068	    0.758208	    0.000681
 8726.670000	    1.900058	  132.262820	    0.000315	  157.251095	    0.000208	   25.325205	    0.001148	  -23.854190	    0.000295	   14.475696	    0.000026	  144.756957	    0.000261	    0.073551	    0.000072	    0.735507	    0.000722
 8806.750000	    1.900044	  132.264380	    0.000347	  157.345270	    0.000488	   25.193970	    0.000466	  -24.010695	    0.000859	   14.480483	    0.000042	  144.804825	    0.000417	    0.059164	    0.000066	    0.591637	    0.000663
 8886.168000	    1.899919	  132.210050	    0.000201	  157.375120	    0.000703	   25.502255	    0.001332	  -23.797180	    0.000593	   14.479259	    0.000045	  144.792585	    0.000452	    0.085254	    0.000096	    0.852538	    0.000963
 8967.796000	    1.900016	  132.313510	    0.000172	  157.312210	    0.000278	   25.307520	    0.000696	  -23.660810	    0.000300	   14.481286	    0.000023	  144.812860	    0.000225	    0.082335	    0.000050	    0.823355	    0.000498
 9047.657000	    1.900002	  132.351855	    0.000530	  157.326360	    0.000155	   25.191855	    0.000447	  -23.675395	    0.000813	   14.483911	    0.000034	  144.839107	    0.000342	    0.075823	    0.000063	    0.758230	    0.000630
 9127.954000	    1.900114	  132.343990	    0.000296	  157.269200	    0.000497	   25.586965	    0.000273	  -23.813490	    0.000539	   14.480659	    0.000040	  144.806595	    0.000397	    0.088674	    0.000041	    0.886738	    0.000406
 9208.260000	    1.900002	  132.353485	    0.000172	  157.163390	    0.000253	   25.028485	    0.000673	  -23.769935	    0.000762	   14.475844	    0.000021	  144.758438	    0.000212	    0.062927	    0.000072	    0.629275	    0.000717
 9288.782000	    1.900086	  132.372055	    0.000359	  157.395490	    0.000344	   25.294300	    0.000385	  -23.669865	    0.000535	   14.488377	    0.000035	  144.883772	    0.000352	    0.081222	    0.000046	    0.812218	    0.000460
 9369.305000	    1.900238	  132.355665	    0.000110	  157.258805	    0.000196	   25.423685	    0.000623	  -23.809520	    0.000334	   14.480723	    0.000015	  144.807235	    0.000153	    0.080708	    0.000048	    0.807083	    0.000479
 9449.385000	    1.900030	  132.369500	    0.000499	  157.438120	    0.000626	   25.293105	    0.000358	  -23.894340	    0.000284	   14.490381	    0.000056	  144.903810	    0.000563	    0.069938	    0.000032	    0.699383	    0.000321
 9530.793000	    1.899905	  132.406140	    0.000257	  157.252620	    0.000403	   25.272840	    0.000571	  -23.809155	    0.000344	   14.482938	    0.000033	  144.829380	    0.000330	    0.073184	    0.000046	    0.731843	    0.000457
 9610.874000	    1.899961	  132.305445	    0.000287	  157.159015	    0.000307	   25.391915	    0.000464	  -23.666015	    0.000341	   14.473223	    0.000030	  144.732230	    0.000297	    0.086295	    0.000040	    0.862950	    0.000403
 9690.734000	    1.899989	  132.345920	    0.000199	  157.224140	    0.000270	   25.058620	    0.000741	  -23.699230	    0.000436	   14.478503	    0.000023	  144.785030	    0.000234	    0.067969	    0.000059	    0.679695	    0.000589
 9770.814000	    1.900072	  132.448640	    0.000319	  157.258770	    0.000354	   25.088445	    0.000177	  -23.590260	    0.000472	   14.485371	    0.000034	  144.853705	    0.000337	    0.074909	    0.000032	    0.749092	    0.000324
 9849.781000	    1.900030	  132.451170	    0.000662	  157.105330	    0.001721	   25.207845	    0.000432	  -23.672495	    0.000889	   14.477825	    0.000119	  144.778250	    0.001191	    0.076768	    0.000066	    0.767675	    0.000660
10052.090000	    1.900044	  132.410150	    0.000314	  157.202420	    0.000438	   25.123905	    0.000434	  -23.646695	    0.000713	   14.480628	    0.000038	  144.806285	    0.000376	    0.073860	    0.000057	    0.738605	    0.000573
10354.440000	    1.900072	  132.548840	    0.000097	  157.296780	    0.000575	   25.283195	    0.002332	  -23.591090	    0.000875	   14.492281	    0.000034	  144.922810	    0.000336	    0.084605	    0.000160	    0.846053	    0.001604
10655.010000	    1.899989	  132.404625	    0.000516	  157.299935	    0.001993	   25.394400	    0.004218	  -23.751110	    0.000388	   14.485228	    0.000125	  144.852280	    0.001254	    0.082164	    0.000230	    0.821645	    0.002303
10957.360000	    1.899919	  132.325170	    0.000163	  157.410335	    0.000139	   25.448670	    0.000301	  -23.714820	    0.000291	   14.486775	    0.000015	  144.867752	    0.000151	    0.086692	    0.000030	    0.866925	    0.000296
11259.940000	    1.900058	  132.359635	    0.000270	  157.615695	    0.001110	   25.440030	    0.000374	  -23.594980	    0.000295	   14.498766	    0.000069	  144.987665	    0.000690	    0.092253	    0.000033	    0.922525	    0.000334
11562.290000	    1.899933	  132.485755	    0.000200	  157.390590	    0.000417	   25.569775	    0.000219	  -23.716445	    0.000454	   14.493817	    0.000031	  144.938173	    0.000308	    0.092666	    0.000034	    0.926665	    0.000336
11863.970000	    1.900169	  132.463345	    0.000288	  157.310015	    0.000629	   25.380935	    0.002319	  -23.461330	    0.000760	   14.488668	    0.000046	  144.886680	    0.000458	    0.095980	    0.000154	    0.959803	    0.001539
12166.540000	    1.900100	  132.599770	    0.000165	  157.290425	    0.000231	   25.620635	    0.001364	  -23.416135	    0.000694	   14.494510	    0.000020	  144.945098	    0.000198	    0.110225	    0.000103	    1.102250	    0.001029
12468.450000	    1.900114	  132.451790	    0.000161	  157.574515	    0.000318	   25.551755	    0.000467	  -23.691240	    0.001981	   14.501315	    0.000024	  145.013152	    0.000240	    0.093026	    0.000122	    0.930258	    0.001224
12769.250000	    1.900030	  132.447075	    0.000160	  157.602335	    0.000118	   25.556515	    0.000368	  -23.651570	    0.000508	   14.502471	    0.000014	  145.024705	    0.000139	    0.095247	    0.000044	    0.952473	    0.000438
13070.930000	    1.900169	  132.404020	    0.000377	  157.459185	    0.000450	   25.434285	    0.000764	  -23.447065	    0.001508	   14.493160	    0.000041	  144.931602	    0.000413	    0.099361	    0.000114	    0.993610	    0.001136
13375.060000	    1.900030	  132.518385	    0.000397	  157.606210	    0.000637	   25.866335	    0.000567	  -23.530885	    0.000940	   14.506230	    0.000052	  145.062297	    0.000517	    0.116772	    0.000075	    1.167725	    0.000753
13674.520000	    1.900086	  132.599010	    0.000420	  157.593840	    0.000381	   25.958260	    0.000591	  -23.634015	    0.000760	   14.509643	    0.000040	  145.096425	    0.000400	    0.116212	    0.000068	    1.162123	    0.000676
13977.310000	    1.900072	  132.513495	    0.000236	  157.551710	    0.000499	   25.670010	    0.001729	  -23.633030	    0.001178	   14.503260	    0.000037	  145.032602	    0.000368	    0.101849	    0.000145	    1.018490	    0.001453
14277.890000	    1.899961	  132.501860	    0.000227	  157.681985	    0.000331	   25.669975	    0.000318	  -23.684230	    0.000460	   14.509192	    0.000028	  145.091922	    0.000279	    0.099287	    0.000039	    0.992873	    0.000389
14580.680000	    1.899989	  132.472165	    0.000302	  157.751900	    0.000489	   25.676060	    0.000329	  -23.555295	    0.000892	   14.511203	    0.000040	  145.112032	    0.000395	    0.106038	    0.000061	    1.060383	    0.000611
14882.920000	    1.900030	  132.668350	    0.000814	  157.610450	    0.000187	   25.552670	    0.000400	  -23.646985	    0.000446	   14.513940	    0.000050	  145.139400	    0.000500	    0.095284	    0.000042	    0.952842	    0.000423
15182.950000	    1.900127	  132.490905	    0.000568	  157.699180	    0.000263	   25.546865	    0.000804	  -23.683765	    0.000840	   14.509504	    0.000042	  145.095042	    0.000415	    0.093155	    0.000082	    0.931550	    0.000822
15486.290000	    1.900197	  132.517415	    0.000494	  157.629430	    0.000792	   25.593185	    0.000333	  -23.530975	    0.000303	   14.507342	    0.000064	  145.073422	    0.000643	    0.103110	    0.000032	    1.031105	    0.000318
15787.980000	    1.900072	  132.652185	    0.000210	  157.569885	    0.000175	   25.881470	    0.000247	  -23.569110	    0.000589	   14.511104	    0.000019	  145.111035	    0.000193	    0.115618	    0.000042	    1.156180	    0.000418
16090.220000	    1.900044	  132.607930	    0.000108	  157.724065	    0.000950	   25.604050	    0.000573	  -23.336055	    0.000238	   14.516600	    0.000053	  145.165998	    0.000529	    0.113400	    0.000041	    1.133998	    0.000406
16392.450000	    1.899961	  132.645340	    0.000298	  157.636090	    0.000289	   25.711845	    0.000697	  -23.606955	    0.001513	   14.514072	    0.000029	  145.140715	    0.000293	    0.105244	    0.000110	    1.052445	    0.001105
16694.700000	    1.900155	  132.579945	    0.000326	  157.645655	    0.000374	   25.789900	    0.001277	  -23.349865	    0.000779	   14.511280	    0.000035	  145.112800	    0.000350	    0.122002	    0.000103	    1.220018	    0.001028
16996.380000	    1.900183	  132.665420	    0.000130	  157.643865	    0.000391	   25.810010	    0.000704	  -23.253735	    0.000533	   14.515464	    0.000026	  145.154642	    0.000260	    0.127814	    0.000062	    1.278137	    0.000618
17298.060000	    1.900002	  132.629335	    0.000158	  157.747480	    0.000284	   25.903585	    0.000581	  -23.567355	    0.000588	   14.518841	    0.000022	  145.188407	    0.000221	    0.116811	    0.000058	    1.168115	    0.000585
17599.200000	    1.899933	  132.593025	    0.000324	  157.659845	    0.000294	   25.713195	    0.000300	  -23.498135	    0.000290	   14.512643	    0.000031	  145.126435	    0.000309	    0.110753	    0.000029	    1.107530	    0.000295
17901.990000	    1.900016	  132.675865	    0.000311	  157.674985	    0.000742	   26.089320	    0.000571	  -23.563715	    0.000573	   14.517542	    0.000053	  145.175425	    0.000527	    0.126280	    0.000057	    1.262803	    0.000572
18203.120000	    1.899919	  132.677215	    0.000277	  157.704340	    0.000253	   26.139540	    0.000409	  -23.308420	    0.000816	   14.519078	    0.000027	  145.190777	    0.000265	    0.141556	    0.000061	    1.415560	    0.000612
18505.910000	    1.900141	  132.577450	    0.000097	  157.925910	    0.000360	   26.137305	    0.000982	  -23.526620	    0.000610	   14.525168	    0.000023	  145.251680	    0.000228	    0.130534	    0.000080	    1.305343	    0.000796
18806.490000	    1.900141	  132.627485	    0.000413	  157.810475	    0.000199	   26.139435	    0.000636	  -23.413985	    0.001509	   14.521898	    0.000031	  145.218980	    0.000306	    0.136272	    0.000107	    1.362725	    0.001072
19109.280000	    1.900072	  132.682065	    0.000441	  157.770160	    0.000379	   26.121325	    0.002252	  -23.330595	    0.000628	   14.522611	    0.000041	  145.226112	    0.000410	    0.139537	    0.000144	    1.395365	    0.001440
19411.520000	    1.900114	  132.684950	    0.000384	  157.674010	    0.000850	   25.916450	    0.000256	  -23.008965	    0.000761	   14.517948	    0.000062	  145.179480	    0.000617	    0.145374	    0.000051	    1.453743	    0.000509
19710.990000	    1.900058	  132.782655	    0.000246	  157.738730	    0.000254	   25.816850	    0.000440	  -23.069270	    0.000992	   14.526069	    0.000025	  145.260693	    0.000250	    0.137379	    0.000072	    1.373790	    0.000716
20014.340000	    1.900072	  132.751425	    0.000157	  157.695885	    0.000649	   25.911715	    0.000508	  -23.341460	    0.000577	   14.522365	    0.000040	  145.223655	    0.000403	    0.128513	    0.000054	    1.285127	    0.000543
20316.020000	    1.900002	  132.691285	    0.000445	  157.806535	    0.000633	   26.215345	    0.000222	  -23.220660	    0.000999	   14.524891	    0.000054	  145.248910	    0.000539	    0.149734	    0.000061	    1.497343	    0.000611
20618.820000	    1.900016	  132.733865	    0.000245	  157.705115	    0.000308	   25.817905	    0.000510	  -22.903360	    0.000629	   14.521949	    0.000028	  145.219490	    0.000276	    0.145727	    0.000057	    1.457272	    0.000570
20920.500000	    1.900072	  132.795610	    0.000757	  157.780425	    0.000532	   26.157840	    0.001117	  -23.023010	    0.000188	   14.528802	    0.000064	  145.288018	    0.000645	    0.156741	    0.000065	    1.567415	    0.000652
21222.190000	    1.900058	  132.706795	    0.001326	  157.864615	    0.000431	   26.263090	    0.000671	  -23.081370	    0.000383	   14.528570	    0.000088	  145.285705	    0.000879	    0.159086	    0.000053	    1.590860	    0.000527
21524.430000	    1.900169	  132.797400	    0.000741	  157.837455	    0.000304	   26.021040	    0.000354	  -22.832645	    0.001090	   14.531743	    0.000052	  145.317428	    0.000522	    0.159420	    0.000072	    1.594198	    0.000722
21826.110000	    1.900072	  132.793490	    0.000950	  157.785065	    0.001024	   26.276375	    0.000294	  -23.225055	    0.001300	   14.528928	    0.000099	  145.289277	    0.000987	    0.152566	    0.000080	    1.525660	    0.000797
22127.800000	    1.900058	  132.803925	    0.000270	  157.781360	    0.000266	   26.088420	    0.000357	  -22.936580	    0.001147	   14.529264	    0.000027	  145.292642	    0.000268	    0.157592	    0.000075	    1.575920	    0.000752
22430.590000	    1.900211	  132.789285	    0.000172	  157.745865	    0.000113	   26.375550	    0.000745	  -23.096230	    0.000982	   14.526757	    0.000014	  145.267575	    0.000142	    0.163966	    0.000086	    1.639660	    0.000864
22732.270000	    1.900252	  132.622265	    0.000441	  157.862105	    0.000180	   26.254005	    0.000559	  -22.863535	    0.000429	   14.524219	    0.000031	  145.242185	    0.000311	    0.169523	    0.000049	    1.695235	    0.000494
23034.510000	    1.900169	  132.694340	    0.000223	  157.785845	    0.000982	   26.310200	    0.000331	  -22.949965	    0.000469	   14.524009	    0.000060	  145.240093	    0.000603	    0.168012	    0.000040	    1.680117	    0.000400
23336.200000	    1.900072	  132.703730	    0.000345	  158.033370	    0.000211	   26.358105	    0.000756	  -23.022175	    0.000376	   14.536855	    0.000028	  145.368550	    0.000278	    0.166796	    0.000057	    1.667965	    0.000566
23637.880000	    1.900058	  132.611305	    0.000604	  157.992230	    0.000372	   26.503795	    0.000528	  -23.319270	    0.000788	   14.530177	    0.000049	  145.301768	    0.000488	    0.159226	    0.000066	    1.592262	    0.000658
23939.570000	    1.899975	  132.669225	    0.000324	  158.036020	    0.000447	   26.514240	    0.000382	  -23.322980	    0.000646	   14.535262	    0.000039	  145.352622	    0.000385	    0.159563	    0.000051	    1.595630	    0.000514
24240.700000	    1.900086	  132.636110	    0.000590	  158.027405	    0.000215	   26.560870	    0.001059	  -23.120750	    0.000724	   14.533176	    0.000040	  145.331757	    0.000403	    0.172006	    0.000089	    1.720060	    0.000892
24543.490000	    1.900072	  132.747085	    0.000366	  157.877890	    0.000400	   26.570290	    0.000366	  -23.045010	    0.000529	   14.531249	    0.000038	  145.312487	    0.000383	    0.176264	    0.000045	    1.762640	    0.000448
24845.730000	    1.900086	  132.596520	    0.000321	  157.955745	    0.000770	   26.174650	    0.000288	  -22.999760	    0.000449	   14.527613	    0.000055	  145.276133	    0.000545	    0.158745	    0.000037	    1.587445	    0.000368
25145.190000	    1.900016	  132.723410	    0.000573	  157.973760	    0.000600	   26.585400	    0.000699	  -22.911405	    0.001159	   14.534858	    0.000059	  145.348585	    0.000586	    0.183700	    0.000093	    1.836997	    0.000929
25450.200000	    1.900127	  132.733755	    0.000376	  158.058470	    0.000609	   26.565045	    0.000228	  -22.751480	    0.000668	   14.539611	    0.000049	  145.396112	    0.000493	    0.190678	    0.000045	    1.906783	    0.000448
25750.790000	    1.900086	  132.679515	    0.000195	  158.101035	    0.000142	   26.391315	    0.000260	  -23.154570	    0.001271	   14.539028	    0.000017	  145.390275	    0.000168	    0.161837	    0.000077	    1.618372	    0.000766
26053.020000	    1.900058	  132.741755	    0.000229	  158.079265	    0.000395	   26.755730	    0.000516	  -22.887250	    0.000695	   14.541051	    0.000031	  145.410510	    0.000312	    0.193424	    0.000061	    1.934240	    0.000606
26354.150000	    1.900114	  132.717065	    0.000191	  158.086910	    0.000213	   26.925350	    0.000273	  -22.817145	    0.000923	   14.540199	    0.000020	  145.401987	    0.000202	    0.205410	    0.000060	    2.054102	    0.000598
26654.730000	    1.900016	  132.803490	    0.000520	  158.030130	    0.000287	   26.636145	    0.000725	  -22.883525	    0.000334	   14.541681	    0.000040	  145.416810	    0.000403	    0.187631	    0.000053	    1.876310	    0.000530
26958.080000	    1.900114	  132.781840	    0.000266	  157.927295	    0.000371	   26.896900	    0.000293	  -22.837970	    0.000739	   14.535457	    0.000032	  145.354568	    0.000318	    0.202946	    0.000052	    2.029465	    0.000516
27259.760000	    1.900100	  132.713785	    0.000159	  157.970305	    0.000116	   26.724265	    0.000602	  -22.896870	    0.000332	   14.534204	    0.000014	  145.342045	    0.000138	    0.191370	    0.000047	    1.913697	    0.000467
27562.560000	    1.900155	  132.705520	    0.000405	  158.046150	    0.000274	   26.870210	    0.000766	  -22.878815	    0.000446	   14.537583	    0.000034	  145.375835	    0.000339	    0.199570	    0.000061	    1.995698	    0.000606
27864.240000	    1.900114	  132.808970	    0.000240	  158.091725	    0.000142	   26.738060	    0.000452	  -22.813925	    0.000683	   14.545035	    0.000019	  145.450348	    0.000191	    0.196207	    0.000057	    1.962067	    0.000568
28165.930000	    1.900058	  132.829750	    0.000168	  158.231165	    0.000202	   26.653070	    0.000382	  -22.734915	    0.000680	   14.553046	    0.000018	  145.530457	    0.000185	    0.195908	    0.000053	    1.959078	    0.000531
28467.050000	    1.900016	  132.702440	    0.000072	  158.181820	    0.000186	   26.717700	    0.000598	  -22.481220	    0.001101	   14.544213	    0.000013	  145.442130	    0.000129	    0.211824	    0.000085	    2.118240	    0.000850
28768.180000	    1.900016	  132.807120	    0.000451	  158.096200	    0.000569	   26.896030	    0.000293	  -22.755585	    0.001195	   14.545166	    0.000051	  145.451660	    0.000510	    0.207022	    0.000074	    2.070222	    0.000744
29069.310000	    1.900016	  132.812570	    0.001025	  157.990035	    0.000553	   26.703545	    0.000247	  -22.764825	    0.000824	   14.540130	    0.000079	  145.401302	    0.000789	    0.196936	    0.000054	    1.969360	    0.000536
29372.660000	    1.899905	  132.744235	    0.001422	  158.111770	    0.000318	   26.681255	    0.000483	  -22.677560	    0.000857	   14.542800	    0.000087	  145.428002	    0.000870	    0.200185	    0.000067	    2.001848	    0.000670
29674.350000	    1.900072	  132.780740	    0.000339	  158.129020	    0.000458	   26.813715	    0.000739	  -22.603960	    0.000479	   14.545488	    0.000040	  145.454880	    0.000399	    0.210488	    0.000061	    2.104878	    0.000609
29976.580000	    1.900114	  132.690730	    0.000323	  158.224475	    0.000248	   26.893575	    0.000289	  -22.668825	    0.001623	   14.545760	    0.000029	  145.457602	    0.000285	    0.211237	    0.000096	    2.112375	    0.000956
30279.380000	    1.900100	  132.758790	    0.000359	  158.156400	    0.000353	   27.055195	    0.000745	  -22.767610	    0.001016	   14.545759	    0.000036	  145.457595	    0.000356	    0.214379	    0.000088	    2.143793	    0.000880
30579.950000	    1.900058	  132.863160	    0.000336	  158.105200	    0.000241	   26.911525	    0.000457	  -22.624070	    0.000398	   14.548418	    0.000029	  145.484180	    0.000288	    0.214373	    0.000043	    2.143728	    0.000428
30882.200000	    1.900100	  132.837685	    0.000186	  158.105680	    0.000587	   26.817825	    0.000311	  -22.702275	    0.000924	   14.547168	    0.000039	  145.471682	    0.000387	    0.205777	    0.000062	    2.057775	    0.000617
31182.770000	    1.900058	  132.928125	    0.000321	  158.171940	    0.001316	   26.777515	    0.000588	  -22.536980	    0.000645	   14.555003	    0.000082	  145.550032	    0.000818	    0.212027	    0.000062	    2.120268	    0.000617
31486.120000	    1.900114	  132.923740	    0.000229	  157.997515	    0.000310	   26.744695	    0.000518	  -22.382060	    0.000731	   14.546063	    0.000027	  145.460628	    0.000270	    0.218132	    0.000062	    2.181318	    0.000624
31787.250000	    1.900238	  132.810990	    0.000084	  158.024180	    0.000503	   26.937085	    0.000209	  -22.465205	    0.001429	   14.541759	    0.000029	  145.417585	    0.000293	    0.223594	    0.000082	    2.235940	    0.000819
32088.930000	    1.900238	  132.846990	    0.000478	  158.038495	    0.000695	   26.808460	    0.000345	  -22.360125	    0.001274	   14.544274	    0.000059	  145.442743	    0.000587	    0.222417	    0.000081	    2.224167	    0.000809
32391.170000	    1.900169	  132.772405	    0.000259	  158.194495	    0.000515	   26.866795	    0.000894	  -22.412830	    0.000629	   14.548345	    0.000039	  145.483450	    0.000387	    0.222698	    0.000076	    2.226983	    0.000762
32693.960000	    1.900169	  132.893710	    0.000605	  158.138930	    0.000119	   26.877800	    0.001840	  -22.175970	    0.000773	   14.551632	    0.000036	  145.516320	    0.000362	    0.235092	    0.000131	    2.350915	    0.001307
33000.080000	    1.900072	  132.903040	    0.000487	  158.036390	    0.000185	   27.157520	    0.000367	  -22.212265	    0.001445	   14.546971	    0.000034	  145.469715	    0.000336	    0.247263	    0.000091	    2.472628	    0.000906
33298.450000	    1.900044	  132.877510	    0.000092	  158.069010	    0.000227	   27.092910	    0.000410	  -22.138540	    0.000832	   14.547326	    0.000016	  145.473260	    0.000160	    0.247718	    0.000062	    2.477185	    0.000621
33601.230000	    1.900030	  132.881415	    0.000326	  158.021625	    0.000649	   27.111330	    0.000700	  -22.431130	    0.000284	   14.545152	    0.000049	  145.451520	    0.000488	    0.234010	    0.000049	    2.340100	    0.000492
33901.810000	    1.900086	  132.845980	    0.000137	  157.959385	    0.000174	   27.071870	    0.000544	  -22.261275	    0.002141	   14.540268	    0.000016	  145.402682	    0.000156	    0.240530	    0.000134	    2.405298	    0.001343
34202.390000	    1.900155	  132.913840	    0.000154	  158.073135	    0.000323	   27.144850	    0.000317	  -22.494515	    0.001465	   14.549349	    0.000024	  145.493488	    0.000239	    0.232517	    0.000089	    2.325168	    0.000891
34505.190000	    1.900224	  132.732565	    0.000362	  158.117715	    0.000193	   27.024470	    0.000680	  -22.315845	    0.001230	   14.542514	    0.000028	  145.425140	    0.000277	    0.235431	    0.000096	    2.354312	    0.000955
34806.870000	    1.900183	  132.869370	    0.000265	  158.205810	    0.000121	   27.206515	    0.000515	  -22.378815	    0.000442	   14.553759	    0.000019	  145.537590	    0.000193	    0.241385	    0.000048	    2.413850	    0.000478
35109.660000	    1.900030	  132.863380	    0.000175	  158.145700	    0.000471	   26.831760	    0.000794	  -22.253985	    0.000622	   14.550454	    0.000032	  145.504540	    0.000323	    0.228889	    0.000071	    2.288887	    0.000708
35410.240000	    1.900086	  132.918830	    0.000558	  158.109295	    0.000190	   27.323585	    0.000273	  -22.376975	    0.000920	   14.551406	    0.000037	  145.514062	    0.000374	    0.247331	    0.000060	    2.473305	    0.000596
35711.920000	    1.899961	  132.917800	    0.000261	  158.093050	    0.000397	   27.360805	    0.000257	  -22.378670	    0.000497	   14.550542	    0.000033	  145.505425	    0.000329	    0.249107	    0.000038	    2.491067	    0.000377
36014.710000	    1.900072	  132.743455	    0.002362	  158.272360	    0.000768	   27.405435	    0.000291	  -22.224055	    0.000645	   14.550791	    0.000157	  145.507907	    0.001565	    0.259069	    0.000047	    2.590690	    0.000468
36316.390000	    1.899947	  132.846770	    0.000341	  158.267785	    0.000288	   27.338385	    0.000342	  -22.185575	    0.002580	   14.555728	    0.000031	  145.557277	    0.000314	    0.257640	    0.000146	    2.576405	    0.001461
36618.090000	    1.900002	  132.871925	    0.000266	  158.044705	    0.000298	   27.440630	    0.000201	  -22.233940	    0.001089	   14.545832	    0.000028	  145.458315	    0.000282	    0.260335	    0.000065	    2.603345	    0.000645
36920.880000	    1.900114	  132.878570	    0.000314	  158.122960	    0.000248	   27.307410	    0.000632	  -21.978970	    0.001019	   14.550076	    0.000028	  145.500765	    0.000281	    0.266422	    0.000083	    2.664220	    0.000825
37222.570000	    1.900127	  132.912590	    0.000305	  158.114345	    0.000360	   27.357510	    0.000216	  -22.324180	    0.000282	   14.551347	    0.000033	  145.513468	    0.000333	    0.251667	    0.000025	    2.516665	    0.000249
37525.360000	    1.900169	  132.868760	    0.000243	  158.249010	    0.000187	   27.323440	    0.000273	  -22.209930	    0.000807	   14.555888	    0.000021	  145.558885	    0.000215	    0.255675	    0.000054	    2.556755	    0.000540
37825.930000	    1.900238	  132.839260	    0.000499	  158.192385	    0.000413	   27.196165	    0.000435	  -22.050115	    0.000475	   14.551582	    0.000046	  145.515822	    0.000456	    0.257302	    0.000045	    2.573025	    0.000455
38128.730000	    1.900100	  132.952445	    0.000328	  158.343410	    0.000315	   27.389200	    0.001240	  -22.050265	    0.000609	   14.564793	    0.000032	  145.647928	    0.000321	    0.266947	    0.000092	    2.669468	    0.000925
38430.410000	    1.900100	  132.904445	    0.000102	  158.112015	    0.000361	   27.358460	    0.000431	  -22.169850	    0.000343	   14.550823	    0.000023	  145.508230	    0.000232	    0.259431	    0.000039	    2.594305	    0.000387
38729.880000	    1.900086	  132.939525	    0.000225	  158.144025	    0.000427	   27.366940	    0.000598	  -22.226680	    0.000349	   14.554178	    0.000033	  145.541775	    0.000326	    0.257013	    0.000047	    2.570130	    0.000474
39032.670000	    1.900224	  132.837910	    0.000151	  158.252310	    0.000318	   27.425855	    0.000481	  -22.122025	    0.000990	   14.554511	    0.000023	  145.545110	    0.000235	    0.265191	    0.000074	    2.651915	    0.000736
39335.460000	    1.900072	  132.818155	    0.000259	  158.421530	    0.000567	   27.528575	    0.000525	  -22.254010	    0.000463	   14.561984	    0.000041	  145.619843	    0.000413	    0.263728	    0.000049	    2.637283	    0.000494
39637.150000	    1.900238	  132.785650	    0.001794	  158.177145	    0.000492	   27.716235	    0.000392	  -22.001000	    0.000491	   14.548140	    0.000114	  145.481397	    0.001143	    0.285762	    0.000044	    2.857617	    0.000441
39938.840000	    1.900197	  132.817135	    0.000168	  158.284650	    0.000311	   27.434220	    0.000593	  -21.844445	    0.000697	   14.555089	    0.000024	  145.550892	    0.000240	    0.279489	    0.000064	    2.794887	    0.000645
40240.520000	    1.900127	  132.820580	    0.000336	  158.190300	    0.000255	   27.483550	    0.000252	  -22.130910	    0.000952	   14.550544	    0.000030	  145.505440	    0.000295	    0.267632	    0.000060	    2.676320	    0.000602
40539.990000	    1.900155	  132.879665	    0.000441	  158.332445	    0.000256	   27.631895	    0.000426	  -22.208990	    0.000454	   14.560605	    0.000035	  145.606055	    0.000348	    0.271145	    0.000044	    2.711453	    0.000440
40845.000000	    1.900155	  132.854460	    0.000298	  158.326395	    0.000350	   27.620015	    0.000382	  -22.131695	    0.000447	   14.559043	    0.000032	  145.590428	    0.000324	    0.274416	    0.000041	    2.744160	    0.000414
41146.680000	    1.900224	  132.780255	    0.000233	  158.278025	    0.000290	   27.881140	    0.002639	  -22.072585	    0.000641	   14.552914	    0.000026	  145.529140	    0.000261	    0.290428	    0.000164	    2.904277	    0.001640
41449.480000	    1.900211	  132.918840	    0.000340	  158.221535	    0.000481	   27.568610	    0.000685	  -22.331280	    0.001030	   14.557019	    0.000041	  145.570187	    0.000410	    0.261867	    0.000086	    2.618665	    0.000858
41751.160000	    1.900155	  132.755945	    0.000221	  158.390680	    0.000386	   27.944450	    0.001694	  -22.167760	    0.000426	   14.557331	    0.000030	  145.573312	    0.000304	    0.288834	    0.000106	    2.888345	    0.001060
42053.950000	    1.900086	  132.724205	    0.000198	  158.430700	    0.000324	   27.848590	    0.000345	  -22.048935	    0.008091	   14.557745	    0.000026	  145.577452	    0.000261	    0.289983	    0.000422	    2.899828	    0.004218
42354.530000	    1.900072	  132.735360	    0.000280	  158.423540	    0.000597	   27.978365	    0.000461	  -22.126645	    0.000524	   14.557945	    0.000044	  145.579450	    0.000439	    0.292586	    0.000049	    2.925860	    0.000493
42657.330000	    1.900100	  132.786560	    0.000253	  158.436605	    0.000888	   27.957605	    0.000498	  -22.292385	    0.011196	   14.561158	    0.000057	  145.611582	    0.000570	    0.283261	    0.000585	    2.832610	    0.005847
42957.890000	    1.900114	  132.639465	    0.000345	  158.596480	    0.000526	   28.000760	    0.001096	  -22.070605	    0.000648	   14.561797	    0.000044	  145.617972	    0.000436	    0.296508	    0.000087	    2.965078	    0.000872
43259.580000	    1.900169	  132.712705	    0.000247	  158.477335	    0.000176	   28.186480	    0.001206	  -22.028805	    0.000310	   14.559502	    0.000021	  145.595020	    0.000211	    0.307884	    0.000076	    3.078837	    0.000758
43561.270000	    1.900141	  132.943135	    0.000852	  158.347220	    0.000303	   28.188165	    0.000728	  -21.915055	    0.000809	   14.564518	    0.000058	  145.645177	    0.000578	    0.313656	    0.000077	    3.136555	    0.000769
43862.950000	    1.900114	  132.724365	    0.001079	  158.570905	    0.000390	   28.182610	    0.000706	  -21.913525	    0.001225	   14.564764	    0.000073	  145.647635	    0.000735	    0.313454	    0.000097	    3.134543	    0.000966
44164.630000	    1.900224	  132.779985	    0.000383	  158.494855	    0.000472	   27.909655	    0.000270	  -22.049830	    0.000543	   14.563742	    0.000043	  145.637420	    0.000428	    0.292991	    0.000041	    2.929912	    0.000406
44467.430000	    1.900100	  132.898190	    0.000269	  158.344025	    0.000616	   27.819155	    0.000172	  -21.814095	    0.000377	   14.562111	    0.000044	  145.621107	    0.000443	    0.300253	    0.000027	    3.002530	    0.000274
44768.010000	    1.900224	  132.795285	    0.000235	  158.326230	    0.000375	   27.788680	    0.000359	  -21.672915	    0.000396	   14.556076	    0.000031	  145.560757	    0.000305	    0.305788	    0.000038	    3.057882	    0.000377
45071.910000	    1.900114	  132.899490	    0.000190	  158.215825	    0.000333	   27.816845	    0.000664	  -21.718370	    0.000898	   14.555766	    0.000026	  145.557658	    0.000262	    0.304924	    0.000078	    3.049237	    0.000781
45372.490000	    1.900155	  132.814010	    0.000340	  158.388365	    0.001100	   28.163285	    0.000201	  -21.623345	    0.001208	   14.560119	    0.000072	  145.601187	    0.000720	    0.326997	    0.000070	    3.269970	    0.000704
45673.060000	    1.900252	  132.838825	    0.000217	  158.349965	    0.000220	   27.847375	    0.000487	  -21.866215	    0.002142	   14.559439	    0.000022	  145.594395	    0.000218	    0.299058	    0.000131	    2.990580	    0.001315
45976.960000	    1.900127	  132.918680	    0.000245	  158.329280	    0.000179	   27.887990	    0.000437	  -21.883555	    0.000731	   14.562398	    0.000021	  145.623980	    0.000212	    0.300222	    0.000058	    3.002217	    0.000584
46278.650000	    1.900169	  132.876975	    0.000248	  158.541510	    0.000585	   28.099215	    0.000578	  -21.680915	    0.001014	   14.570924	    0.000042	  145.709242	    0.000416	    0.320915	    0.000080	    3.209150	    0.000796
46581.450000	    1.900141	  132.830485	    0.000260	  158.374360	    0.000459	   28.001240	    0.000783	  -21.724190	    0.000407	   14.560242	    0.000036	  145.602422	    0.000360	    0.313853	    0.000060	    3.138525	    0.000595
46883.130000	    1.900016	  132.905215	    0.000325	  158.361830	    0.000699	   28.024150	    0.000325	  -21.703035	    0.000651	   14.563352	    0.000051	  145.633522	    0.000512	    0.316056	    0.000049	    3.160557	    0.000488
47184.810000	    1.900100	  132.880855	    0.001276	  158.353670	    0.000441	   28.040490	    0.000615	  -21.552570	    0.000528	   14.561726	    0.000086	  145.617262	    0.000858	    0.324396	    0.000057	    3.243960	    0.000572
47486.490000	    1.900072	  132.896545	    0.000241	  158.324690	    0.000231	   28.136165	    0.000528	  -21.415280	    0.000680	   14.561062	    0.000024	  145.610618	    0.000236	    0.336044	    0.000060	    3.360442	    0.000604
47788.180000	    1.900169	  132.928055	    0.000366	  158.355005	    0.000893	   28.037260	    0.002595	  -21.802345	    0.000676	   14.564153	    0.000063	  145.641530	    0.000629	    0.311746	    0.000164	    3.117458	    0.001635
48089.870000	    1.900155	  132.802505	    0.000232	  158.468595	    0.000120	   27.946405	    0.001079	  -21.686955	    0.000690	   14.563555	    0.000018	  145.635550	    0.000176	    0.312972	    0.000088	    3.129725	    0.000884
48390.440000	    1.900100	  132.868945	    0.000158	  158.515215	    0.002361	   28.119700	    0.000725	  -21.634055	    0.001097	   14.569208	    0.000126	  145.692080	    0.001259	    0.324282	    0.000091	    3.242822	    0.000911
48693.230000	    1.900238	  132.876420	    0.000237	  158.402795	    0.000323	   28.153500	    0.000603	  -21.815715	    0.000508	   14.563961	    0.000028	  145.639608	    0.000280	    0.316889	    0.000056	    3.168893	    0.000555
48993.810000	    1.900155	  132.778900	    0.000151	  158.516890	    0.000640	   28.072035	    0.000357	  -21.440650	    0.010525	   14.564789	    0.000040	  145.647895	    0.000396	    0.331569	    0.000544	    3.315693	    0.005441
49295.500000	    1.900169	  132.912015	    0.000465	  158.324665	    0.000362	   28.063480	    0.000515	  -21.394310	    0.000158	   14.561834	    0.000041	  145.618340	    0.000413	    0.333458	    0.000034	    3.334585	    0.000336
49598.290000	    1.900044	  132.996875	    0.000162	  158.454565	    0.000697	   28.144280	    0.000449	  -21.549960	    0.001180	   14.572572	    0.000043	  145.725720	    0.000430	    0.329716	    0.000081	    3.297160	    0.000815
49899.970000	    1.900141	  132.922805	    0.000776	  158.477935	    0.000649	   28.126675	    0.000695	  -21.517500	    0.000751	   14.570037	    0.000071	  145.700370	    0.000712	    0.330459	    0.000072	    3.304588	    0.000723
50201.650000	    1.900169	  132.809810	    0.000348	  158.453935	    0.000300	   28.384995	    0.001236	  -21.265160	    0.000924	   14.563187	    0.000032	  145.631872	    0.000324	    0.355992	    0.000108	    3.559918	    0.001080
    0.000000	    1.899905	  130.899715	    0.000180	  155.202345	    0.000147	   24.230010	    0.000612	  -24.100015	    0.000635	   14.305103	    0.000016	  143.051030	    0.000164	    0.006500	    0.000062	    0.064998	    0.000624
    0.000000	    2.378356	  130.458255	    0.000192	  155.092635	    0.000169	   24.177695	    0.000380	  -24.060030	    0.000486	   14.277545	    0.000018	  142.775445	    0.000180	    0.005883	    0.000043	    0.058832	    0.000433
    0.000000	    2.873847	  130.298960	    0.000306	  154.769055	    0.000800	   24.182945	    0.001580	  -24.008755	    0.001084	   14.253401	    0.000055	  142.534008	    0.000553	    0.008709	    0.000133	    0.087095	    0.001332
    0.000000	    3.358005	  130.054910	    0.000422	  154.424860	    0.000244	   23.981510	    0.000932	  -23.979690	    0.000970	   14.223989	    0.000033	  142.239885	    0.000333	    0.000091	    0.000095	    0.000910	    0.000951
    0.000000	    3.849630	  129.938420	    0.000246	  154.332450	    0.000295	   23.900280	    0.001604	  -23.907260	    0.000513	   14.213544	    0.000027	  142.135435	    0.000271	   -0.000349	    0.000106	   -0.003490	    0.001058
    0.000000	    4.328821	  129.779225	    0.000312	  154.297915	    0.000253	   23.840975	    0.000440	  -23.718210	    0.000542	   14.203857	    0.000028	  142.038570	    0.000283	    0.006138	    0.000049	    0.061382	    0.000491
    0.000000	    4.823457	  129.693230	    0.000403	  153.951820	    0.000151	   23.816700	    0.000737	  -23.824365	    0.000298	   14.182253	    0.000028	  141.822525	    0.000277	   -0.000383	    0.000052	   -0.003833	    0.000517
    0.000000	    5.303604	  129.564370	    0.000326	  153.716370	    0.000103	   23.760960	    0.000739	  -23.737765	    0.000673	   14.164037	    0.000021	  141.640370	    0.000215	    0.001160	    0.000071	    0.011598	    0.000706
    0.000000	    5.788599	  129.392155	    0.000311	  153.526985	    0.000273	   23.560430	    0.000207	  -23.544630	    0.001113	   14.145957	    0.000029	  141.459570	    0.000292	    0.000790	    0.000066	    0.007900	    0.000660
    0.000000	    6.283409	  129.471435	    0.000474	  153.492885	    0.000241	   23.917075	    0.001210	  -23.840205	    0.001713	   14.148216	    0.000036	  141.482160	    0.000357	    0.003844	    0.000146	    0.038435	    0.001462
    0.000000	    6.758618	  129.191260	    0.000396	  153.488810	    0.000358	   23.609375	    0.000337	  -23.511825	    0.000611	   14.134004	    0.000038	  141.340035	    0.000377	    0.004878	    0.000047	    0.048775	    0.000474
    0.000000	    7.243736	  129.287640	    0.000298	  153.095570	    0.000249	   23.625085	    0.000955	  -23.601620	    0.000920	   14.119160	    0.000027	  141.191605	    0.000273	    0.001173	    0.000094	    0.011732	    0.000938
    0.000000	    7.732574	  129.181790	    0.000426	  153.014970	    0.000629	   23.649230	    0.000253	  -23.636565	    0.001000	   14.109838	    0.000053	  141.098380	    0.000528	    0.000633	    0.000063	    0.006332	    0.000627
    0.000000	    8.215420	  129.150555	    0.000307	  153.024360	    0.000396	   23.772305	    0.001771	  -23.583860	    0.000900	   14.108746	    0.000035	  141.087457	    0.000352	    0.009422	    0.000134	    0.094222	    0.001336
    0.000000	    8.714565	  129.004095	    0.000221	  152.974485	    0.000570	   23.648515	    0.000234	  -23.496290	    0.000779	   14.098929	    0.000040	  140.989290	    0.000396	    0.007611	    0.000051	    0.076112	    0.000506
    0.000000	    9.189174	  128.908595	    0.000406	  152.755160	    0.000345	   23.855355	    0.000317	  -23.784205	    0.002437	   14.083188	    0.000038	  140.831878	    0.000376	    0.003558	    0.000138	    0.035575	    0.001377
    0.000000	    9.670595	  128.817565	    0.000900	  152.847965	    0.000758	   23.776585	    0.000467	  -23.559350	    0.002209	   14.083276	    0.000083	  140.832765	    0.000829	    0.010862	    0.000134	    0.108617	    0.001338
    0.000000	   10.161670	  128.855385	    0.000462	  152.771965	    0.000459	   23.999605	    0.000510	  -23.473770	    0.002501	   14.081368	    0.000046	  140.813675	    0.000460	    0.026292	    0.000151	    0.262918	    0.001505
    0.000000	   10.642130	  128.876645	    0.000147	  152.612160	    0.000502	   23.497460	    0.000291	  -23.594655	    0.000442	   14.074440	    0.000032	  140.744402	    0.000324	   -0.004860	    0.000037	   -0.048598	    0.000366
    0.000000	   11.126880	  128.797295	    0.000252	  152.674945	    0.000300	   23.661450	    0.000225	  -23.767225	    0.001329	   14.073612	    0.000028	  140.736120	    0.000276	   -0.005289	    0.000078	   -0.052888	    0.000777
    0.000000	   11.609310	  128.660500	    0.000464	  152.675555	    0.001279	   23.895955	    0.000622	  -23.798645	    0.000470	   14.066803	    0.000087	  140.668027	    0.000871	    0.004866	    0.000055	    0.048655	    0.000546
    0.000000	   12.095580	  128.661370	    0.000369	  152.599515	    0.000252	   24.011415	    0.000502	  -23.725770	    0.000457	   14.063044	    0.000031	  140.630442	    0.000310	    0.014282	    0.000048	    0.142823	    0.000480
    0.000000	   12.588210	  128.590805	    0.000274	  152.463175	    0.000270	   23.449800	    0.000366	  -23.512910	    0.000681	   14.052699	    0.000027	  140.526990	    0.000272	   -0.003156	    0.000052	   -0.031555	    0.000523
    0.000000	   13.078840	  128.657695	    0.000170	  152.521120	    0.000599	   23.681005	    0.000266	  -23.982110	    0.001221	   14.058941	    0.000038	  140.589407	    0.000385	   -0.015055	    0.000074	   -0.150553	    0.000744
    0.000000	   13.566750	  128.492800	    0.000385	  152.442605	    0.000195	   23.576090	    0.001138	  -23.938810	    0.000882	   14.046770	    0.000029	  140.467702	    0.000290	   -0.018136	    0.000101	   -0.181360	    0.001010
    0.000000	   14.041970	  128.515895	    0.000260	  152.489255	    0.000222	   23.470170	    0.000278	  -23.860290	    0.000605	   14.050258	    0.000024	  140.502575	    0.000241	   -0.019506	    0.000044	   -0.195060	    0.000442
    0.000000	   14.529790	  128.404735	    0.000264	  152.501690	    0.000247	   23.867295	    0.000550	  -23.906495	    0.000407	   14.045321	    0.000026	  140.453213	    0.000256	   -0.001960	    0.000048	   -0.019600	    0.000479
    0.000000	   15.018900	  128.449545	    0.000459	  152.518285	    0.000458	   23.774390	    0.000756	  -23.958525	    0.000647	   14.048392	    0.000046	  140.483915	    0.000458	   -0.009207	    0.000070	   -0.092068	    0.000702
    0.000000	   15.499200	  128.412360	    0.000256	  152.365655	    0.000614	   23.864325	    0.001005	  -24.110050	    0.000548	   14.038901	    0.000043	  140.389007	    0.000435	   -0.012286	    0.000078	   -0.122863	    0.000777
    0.000000	   15.986010	  128.341650	    0.000153	  152.358085	    0.000442	   23.707600	    0.001989	  -23.633255	    0.000543	   14.034987	    0.000030	  140.349868	    0.000297	    0.003717	    0.000127	    0.037173	    0.001266
    0.000000	   16.472730	  128.478595	    0.000419	  152.272605	    0.000330	   23.500755	    0.000602	  -23.742940	    0.001337	   14.037560	    0.000037	  140.375600	    0.000375	   -0.012109	    0.000097	   -0.121092	    0.000970
    0.000000	   16.959210	  128.479040	    0.001284	  152.360715	    0.000506	   23.534595	    0.001817	  -23.737085	    0.000484	   14.041988	    0.000090	  140.419877	    0.000895	   -0.010124	    0.000115	   -0.101245	    0.001151
    0.000000	   17.444280	  128.464735	    0.000137	  152.203075	    0.000640	   23.522995	    0.000598	  -23.708395	    0.001391	   14.033390	    0.000039	  140.333905	    0.000389	   -0.009270	    0.000099	   -0.092700	    0.000994
    0.000000	   17.931310	  128.472000	    0.000427	  152.335235	    0.001032	   23.426420	    0.000520	  -23.825710	    0.000422	   14.040362	    0.000073	  140.403617	    0.000730	   -0.019965	    0.000047	   -0.199645	    0.000471
    0.000000	   18.416820	  128.429375	    0.000284	  152.354970	    0.000342	   23.695405	    0.001392	  -23.562515	    0.001461	   14.039217	    0.000031	  140.392172	    0.000313	    0.006645	    0.000143	    0.066445	    0.001426
    0.000000	   18.902420	  128.490645	    0.000146	  152.227265	    0.000355	   23.478960	    0.000455	  -23.722245	    0.000674	   14.035895	    0.000025	  140.358955	    0.000250	   -0.012164	    0.000056	   -0.121643	    0.000564
    0.000000	   19.387900	  128.396055	    0.000244	  152.243485	    0.000670	   23.543015	    0.000338	  -23.676985	    0.000642	   14.031977	    0.000046	  140.319770	    0.000457	   -0.006698	    0.000049	   -0.066985	    0.000490
    0.000000	   19.874010	  128.457600	    0.000601	  152.300565	    0.000950	   23.743360	    0.000887	  -24.072825	    0.000361	   14.037908	    0.000078	  140.379083	    0.000775	   -0.016473	    0.000062	   -0.164732	    0.000624
    0.000000	   20.359930	  128.335220	    0.000320	  152.426895	    0.000361	   23.779530	    0.000430	  -23.692485	    0.000905	   14.038106	    0.000034	  140.381057	    0.000341	    0.004352	    0.000067	    0.043522	    0.000668
    0.000000	   20.846740	  128.457185	    0.000445	  152.120965	    0.000688	   23.385015	    0.000948	  -23.691005	    0.000590	   14.028907	    0.000057	  140.289075	    0.000566	   -0.015300	    0.000077	   -0.152995	    0.000769
    0.000000	   21.333550	  128.502745	    0.000255	  152.232070	    0.000219	   23.435435	    0.002382	  -23.631740	    0.001026	   14.036741	    0.000024	  140.367408	    0.000237	   -0.009815	    0.000170	   -0.098153	    0.001704
    0.000000	   21.819980	  128.488840	    0.000457	  152.078035	    0.000361	   23.679270	    0.001284	  -23.684170	    0.000822	   14.028344	    0.000041	  140.283437	    0.000409	   -0.000245	    0.000105	   -0.002450	    0.001053
    0.000000	   22.305320	  128.515675	    0.000268	  152.254410	    0.000777	   23.542185	    0.001521	  -23.739570	    0.000555	   14.038504	    0.000052	  140.385042	    0.000523	   -0.009869	    0.000104	   -0.098693	    0.001038
    0.000000	   22.793630	  128.453095	    0.000397	  152.224460	    0.000543	   23.573800	    0.001065	  -23.654965	    0.001063	   14.033878	    0.000047	  140.338777	    0.000470	   -0.004058	    0.000106	   -0.040582	    0.001064
    0.000000	   23.279370	  128.490960	    0.000931	  152.228495	    0.000821	   23.770120	    0.000457	  -23.750780	    0.000935	   14.035973	    0.000088	  140.359728	    0.000876	    0.000967	    0.000070	    0.009670	    0.000696
    0.000000	   23.766430	  128.513810	    0.000269	  152.157780	    0.000778	   23.531965	    0.000577	  -23.759620	    0.002606	   14.033580	    0.000052	  140.335795	    0.000523	   -0.011383	    0.000159	   -0.113827	    0.001592
    0.000000	   24.253140	  128.466150	    0.000214	  152.264090	    0.000977	   23.582780	    0.000527	  -23.899950	    0.001527	   14.036512	    0.000060	  140.365120	    0.000595	   -0.015858	    0.000103	   -0.158585	    0.001027
    0.000000	   24.742770	  128.408915	    0.000449	  152.326330	    0.000354	   23.640680	    0.000872	  -23.612550	    0.000836	   14.036762	    0.000040	  140.367622	    0.000402	    0.001406	    0.000085	    0.014065	    0.000854
    0.000000	   25.223880	  128.530875	    0.000682	  152.169555	    0.000397	   23.315525	    0.000792	  -23.600600	    0.000874	   14.035022	    0.000054	  140.350215	    0.000539	   -0.014254	    0.000083	   -0.142537	    0.000833
    0.000000	   25.709860	  128.586055	    0.000805	  152.279455	    0.000843	   23.683740	    0.001242	  -23.668475	    0.001258	   14.043276	    0.000082	  140.432755	    0.000824	    0.000763	    0.000125	    0.007632	    0.001250
    0.000000	   26.196000	  128.527005	    0.000236	  152.273985	    0.000364	   23.487510	    0.001340	  -23.060915	    0.000613	   14.040050	    0.000030	  140.400495	    0.000300	    0.021330	    0.000098	    0.213297	    0.000976
    0.000000	   26.681390	  128.753305	    0.000333	  152.126655	    0.000342	   23.453715	    0.000957	  -23.298965	    0.001418	   14.043998	    0.000034	  140.439980	    0.000337	    0.007737	    0.000119	    0.077375	    0.001187
    0.000000	   27.168050	  128.718595	    0.000523	  152.125185	    0.000363	   23.520985	    0.000466	  -23.341055	    0.000908	   14.042189	    0.000044	  140.421890	    0.000443	    0.008997	    0.000069	    0.089965	    0.000687
    0.000000	   27.655790	  128.686120	    0.000662	  152.039275	    0.000518	   23.375485	    0.000684	  -23.715960	    0.001484	   14.036270	    0.000059	  140.362697	    0.000590	   -0.017024	    0.000108	   -0.170238	    0.001084
    0.000000	   28.141560	  128.560630	    0.000328	  152.288780	    0.000126	   23.528765	    0.000667	  -23.526085	    0.000361	   14.042471	    0.000023	  140.424705	    0.000227	    0.000134	    0.000051	    0.001340	    0.000514
    0.000000	   28.627780	  128.629410	    0.000590	  152.276250	    0.000607	   23.491365	    0.001864	  -23.433995	    0.000828	   14.045283	    0.000060	  140.452830	    0.000598	    0.002868	    0.000135	    0.028685	    0.001346
    0.000000	   29.113770	  128.693340	    0.000122	  152.221915	    0.000466	   23.347670	    0.001487	  -23.443115	    0.001753	   14.045763	    0.000029	  140.457628	    0.000294	   -0.004772	    0.000162	   -0.047722	    0.001620
    0.000000	   29.600570	  128.714380	    0.000445	  152.118960	    0.000986	   23.497355	    0.000926	  -23.885045	    0.001257	   14.041667	    0.000072	  140.416670	    0.000716	   -0.019385	    0.000109	   -0.193845	    0.001092
    0.000000	   30.087220	  128.548650	    0.000700	  152.467995	    0.000305	   23.576910	    0.001359	  -23.930835	    0.000973	   14.050832	    0.000050	  140.508322	    0.000502	   -0.017696	    0.000117	   -0.176963	    0.001166
    0.000000	   30.573720	  128.579740	    0.000247	  152.526085	    0.001107	   23.903640	    0.000639	  -24.011670	    0.000742	   14.055291	    0.000068	  140.552912	    0.000677	   -0.005402	    0.000069	   -0.054015	    0.000690
    0.000000	   31.059950	  128.531645	    0.000508	  152.579760	    0.000265	   23.562135	    0.002047	  -24.045110	    0.000920	   14.055570	    0.000039	  140.555703	    0.000386	   -0.024149	    0.000148	   -0.241488	    0.001483
    0.000000	   31.544290	  128.589465	    0.000717	  152.506525	    0.000429	   23.727675	    0.003242	  -23.808840	    0.000899	   14.054799	    0.000057	  140.547995	    0.000573	   -0.004058	    0.000207	   -0.040583	    0.002070
    0.000000	   32.030110	  128.654020	    0.000266	  152.497580	    0.001688	   23.612660	    0.000661	  -23.836390	    0.000568	   14.057580	    0.000098	  140.575800	    0.000977	   -0.011186	    0.000061	   -0.111865	    0.000614
    0.000000	   32.518010	  128.643135	    0.000308	  152.591935	    0.000484	   23.476455	    0.000641	  -23.899315	    0.000751	   14.061753	    0.000040	  140.617535	    0.000396	   -0.021143	    0.000070	   -0.211430	    0.000696
    0.000000	   33.004300	  128.656005	    0.000386	  152.508265	    0.000719	   23.574545	    0.001169	  -24.000145	    0.000954	   14.058214	    0.000055	  140.582135	    0.000552	   -0.021280	    0.000106	   -0.212800	    0.001061
    0.000000	   33.490550	  128.543520	    0.000481	  152.686660	    0.000739	   23.765620	    0.000553	  -24.052955	    0.001403	   14.061509	    0.000061	  140.615090	    0.000610	   -0.014367	    0.000098	   -0.143667	    0.000978
    0.000000	   33.975460	  128.637870	    0.000331	  152.585955	    0.000560	   23.617205	    0.000993	  -23.950100	    0.001344	   14.061191	    0.000045	  140.611912	    0.000445	   -0.016645	    0.000117	   -0.166448	    0.001168
    0.000000	   34.460780	  128.633890	    0.000335	  152.582585	    0.001279	   23.731265	    0.000813	  -23.855280	    0.001456	   14.060824	    0.000081	  140.608237	    0.000807	   -0.006201	    0.000113	   -0.062008	    0.001134
    0.000000	   34.948930	  128.720465	    0.000631	  152.421985	    0.000654	   23.646335	    0.001880	  -23.383490	    0.000474	   14.057123	    0.000064	  140.571225	    0.000642	    0.013142	    0.000118	    0.131422	    0.001177
    0.000000	   35.435910	  128.965105	    0.000501	  152.345420	    0.002169	   23.268490	    0.002140	  -23.713450	    0.001039	   14.065526	    0.000133	  140.655262	    0.001335	   -0.022248	    0.000159	   -0.222480	    0.001589
    0.000000	   35.922450	  128.871435	    0.000353	  152.406430	    0.000587	   23.552180	    0.000752	  -23.767180	    0.001121	   14.063893	    0.000047	  140.638933	    0.000470	   -0.010750	    0.000094	   -0.107500	    0.000937
    0.000000	   36.405460	  128.819560	    0.000491	  152.546555	    0.000393	   23.302185	    0.002089	  -23.556875	    0.000706	   14.068306	    0.000044	  140.683057	    0.000442	   -0.012735	    0.000140	   -0.127345	    0.001397
    0.000000	   36.893590	  128.968555	    0.000259	  152.557250	    0.000531	   23.435790	    0.000488	  -23.468985	    0.000788	   14.076290	    0.000040	  140.762902	    0.000395	   -0.001660	    0.000064	   -0.016598	    0.000638
    0.000000	   37.379930	  129.019215	    0.000494	  152.514830	    0.000584	   23.461220	    0.003960	  -23.512510	    0.001366	   14.076702	    0.000054	  140.767022	    0.000539	   -0.002564	    0.000266	   -0.025645	    0.002663
    0.000000	   37.865350	  129.054260	    0.000211	  152.475325	    0.000703	   23.259485	    0.000887	  -23.491840	    0.001083	   14.076479	    0.000046	  140.764792	    0.000457	   -0.011618	    0.000099	   -0.116177	    0.000985
    0.000000	   38.351660	  129.171305	    0.000451	  152.405665	    0.000201	   23.364865	    0.001307	  -23.302550	    0.001404	   14.078848	    0.000033	  140.788485	    0.000326	    0.003116	    0.000136	    0.031158	    0.001356
    0.000000	   38.838290	  129.283815	    0.000781	  152.382755	    0.001809	   22.913140	    0.001084	  -22.956420	    0.000963	   14.083329	    0.000129	  140.833285	    0.001295	   -0.002164	    0.000102	   -0.021640	    0.001024
    0.000000	   39.324260	  129.483035	    0.001163	  152.318890	    0.000624	   22.591335	    0.002841	  -22.871465	    0.002789	   14.090096	    0.000089	  140.900962	    0.000893	   -0.014007	    0.000281	   -0.140065	    0.002815
    0.000000	   39.812200	  129.540880	    0.000484	  152.385500	    0.000426	   22.709925	    0.001185	  -23.068955	    0.000983	   14.096319	    0.000046	  140.963190	    0.000455	   -0.017952	    0.000108	   -0.179515	    0.001084
    0.000000	   40.297160	  129.434290	    0.000288	  152.432150	    0.000664	   22.991680	    0.001642	  -23.085675	    0.004218	   14.093322	    0.000048	  140.933220	    0.000476	   -0.004700	    0.000293	   -0.046998	    0.002930
    0.000000	   40.784980	  129.422315	    0.001053	  152.389405	    0.001324	   23.003435	    0.000702	  -23.209535	    0.000564	   14.090586	    0.000119	  140.905860	    0.001188	   -0.010305	    0.000063	   -0.103050	    0.000633
    0.000000	   41.268960	  129.466275	    0.000334	  152.454940	    0.001123	   22.896025	    0.002550	  -22.988090	    0.000456	   14.096061	    0.000073	  140.960607	    0.000728	   -0.004603	    0.000150	   -0.046033	    0.001503
    0.000000	   41.761840	  129.415740	    0.000601	  152.611880	    0.000769	   23.054505	    0.001690	  -23.133620	    0.001360	   14.101381	    0.000069	  141.013810	    0.000685	   -0.003956	    0.000152	   -0.039557	    0.001525
    0.000000	   42.248510	  129.523260	    0.000425	  152.608780	    0.000500	   23.196780	    0.001041	  -23.369605	    0.001259	   14.106602	    0.000046	  141.066020	    0.000462	   -0.008641	    0.000115	   -0.086412	    0.001150
    0.000000	   42.731700	  129.531040	    0.000611	  152.377880	    0.000784	   22.659640	    0.000829	  -22.640865	    0.000562	   14.095446	    0.000070	  140.954460	    0.000698	    0.000939	    0.000070	    0.009388	    0.000695
    0.000000	   43.218940	  129.747780	    0.000401	  152.443625	    0.000848	   22.463390	    0.000952	  -22.580740	    0.001129	   14.109570	    0.000062	  141.095702	    0.000624	   -0.005868	    0.000104	   -0.058675	    0.001040
    0.000000	   43.700840	  129.943340	    0.000435	  152.299410	    0.000740	   22.202895	    0.001848	  -22.176090	    0.000983	   14.112137	    0.000059	  141.121375	    0.000587	    0.001340	    0.000142	    0.013402	    0.001416
    0.000000	   44.187060	  130.274175	    0.000512	  151.993910	    0.000524	   21.633275	    0.000416	  -21.765450	    0.001064	   14.113404	    0.000052	  141.134042	    0.000518	   -0.006609	    0.000074	   -0.066087	    0.000740
    0.000000	   44.673770	  130.298015	    0.000497	  152.091180	    0.000595	   21.715795	    0.002366	  -21.817870	    0.001308	   14.119460	    0.000055	  141.194597	    0.000546	   -0.005104	    0.000184	   -0.051037	    0.001837
    0.000000	   45.160720	  130.279675	    0.000355	  152.041965	    0.001140	   21.747130	    0.001435	  -21.664475	    0.000418	   14.116082	    0.000075	  141.160820	    0.000748	    0.004133	    0.000093	    0.041328	    0.000927
    0.000000	   45.645660	  130.350710	    0.000216	  152.098655	    0.001135	   21.612405	    0.000966	  -21.706555	    0.001311	   14.122468	    0.000068	  141.224682	    0.000675	   -0.004707	    0.000114	   -0.047075	    0.001139
    0.000000	   46.134190	  130.428715	    0.000725	  152.088160	    0.000723	   21.406095	    0.000826	  -21.450570	    0.001152	   14.125844	    0.000072	  141.258437	    0.000724	   -0.002224	    0.000099	   -0.022238	    0.000989
    0.000000	   46.620090	  130.575545	    0.002217	  151.883610	    0.000403	   21.275760	    0.001275	  -21.392775	    0.001002	   14.122958	    0.000131	  141.229578	    0.001310	   -0.005851	    0.000114	   -0.058508	    0.001139
    0.000000	   47.109210	  130.620910	    0.000881	  151.964100	    0.000390	   21.434570	    0.001039	  -21.547460	    0.001262	   14.129250	    0.000064	  141.292505	    0.000635	   -0.005644	    0.000115	   -0.056445	    0.001150
    0.000000	   47.592950	  130.582405	    0.000492	  151.974545	    0.001629	   21.409865	    0.001084	  -21.436080	    0.000841	   14.127847	    0.000106	  141.278475	    0.001060	   -0.001311	    0.000096	   -0.013108	    0.000963
    0.000000	   48.077240	  130.598080	    0.000417	  151.984895	    0.000378	   21.455115	    0.001441	  -21.387590	    0.001560	   14.129149	    0.000040	  141.291487	    0.000397	    0.003376	    0.000150	    0.033763	    0.001500
    0.000000	   48.564860	  130.613560	    0.000663	  151.928745	    0.000582	   21.376350	    0.001668	  -21.502340	    0.000962	   14.127115	    0.000062	  141.271152	    0.000622	   -0.006299	    0.000131	   -0.062995	    0.001315
    0.000000	   49.051460	  130.641480	    0.000110	  152.140355	    0.000304	   21.669270	    0.001721	  -21.526330	    0.003670	   14.139092	    0.000021	  141.390918	    0.000207	    0.007147	    0.000270	    0.071470	    0.002696
    0.000000	   49.535400	  131.096440	    0.000947	  151.842485	    0.000345	   20.904935	    0.000791	  -21.023370	    0.004444	   14.146946	    0.000065	  141.469462	    0.000646	   -0.005922	    0.000262	   -0.059217	    0.002617
    0.000000	   50.023280	  131.273290	    0.001441	  151.936035	    0.001407	   21.008850	    0.001298	  -21.105015	    0.001138	   14.160466	    0.000142	  141.604662	    0.001424	   -0.004808	    0.000122	   -0.048082	    0.001218
    0.000000	   50.000080	  131.262430	    0.004036	  151.796105	    0.000348	   20.644420	    0.000693	  -20.668165	    0.000446	   14.152927	    0.000219	  141.529268	    0.002192	   -0.001187	    0.000057	   -0.011873	    0.000569
    0.000000	   52.581720	  134.178265	    0.002003	  151.857915	    0.000835	   21.095455	    0.005835	  -20.971655	    0.001809	   14.301809	    0.000142	  143.018090	    0.001419	    0.006190	    0.000382	    0.061900	    0.003822
    0.000000	   55.126370	  131.177705	    0.000379	  152.560870	    0.000820	   22.185110	    0.003201	  -22.411960	    0.002481	   14.186929	    0.000060	  141.869287	    0.000600	   -0.011343	    0.000284	   -0.113425	    0.002841
    0.000000	   57.660770	  130.350975	    0.001508	  153.799695	    0.000370	   25.646990	    0.002081	  -25.839650	    0.000796	   14.207534	    0.000094	  142.075335	    0.000939	   -0.009633	    0.000144	   -0.096330	    0.001439
    0.000000	   60.195520	  128.063455	    0.000537	  154.029725	    0.002242	   26.417055	    0.001812	  -26.612980	    0.001942	   14.104659	    0.000139	  141.046590	    0.001389	   -0.009796	    0.000188	   -0.097963	    0.001877
    0.000000	   62.723550	  129.355620	    0.001283	  151.940875	    0.001167	   22.943925	    0.001513	  -22.909620	    0.003154	   14.064825	    0.000123	  140.648247	    0.001225	    0.001715	    0.000233	    0.017153	    0.002333
    0.000000	   65.258650	  129.218435	    0.001938	  151.768645	    0.002669	   22.504775	    0.005973	  -22.510215	    0.020546	   14.049354	    0.000230	  140.493540	    0.002304	   -0.000272	    0.001326	   -0.002720	    0.013260
    0.000000	   67.793850	  129.323665	    0.002765	  152.007660	    0.001520	   22.819750	    0.001740	  -23.023390	    0.009063	   14.066566	    0.000214	  140.665662	    0.002143	   -0.010182	    0.000540	   -0.101820	    0.005402
    0.000000	   70.330020	  128.651080	    0.011767	  152.469830	    0.001052	   23.717140	    0.002442	  -23.909675	    0.017792	   14.056045	    0.000641	  140.560455	    0.006409	   -0.009627	    0.001012	   -0.096267	    0.010117
    0.000000	   72.856610	  128.493240	    0.000509	  152.276385	    0.001021	   23.255825	    0.001436	  -23.306775	    0.001579	   14.038481	    0.000076	  140.384813	    0.000765	   -0.002548	    0.000151	   -0.025475	    0.001508
    0.000000	   75.391240	  129.090265	    0.000458	  152.146400	    0.000513	   23.516450	    0.003154	  -23.372125	    0.007606	   14.061833	    0.000049	  140.618332	    0.000486	    0.007216	    0.000538	    0.072163	    0.005380
    0.000000	   77.929790	  128.940875	    0.001466	  152.149615	    0.000505	   23.503065	    0.002188	  -23.523580	    0.001581	   14.054525	    0.000099	  140.545245	    0.000985	   -0.001026	    0.000188	   -0.010258	    0.001884
    0.000000	   80.461050	  128.699765	    0.001155	  152.114970	    0.001554	   23.377875	    0.004707	  -23.261885	    0.001471	   14.040737	    0.000135	  140.407367	    0.001354	    0.005799	    0.000309	    0.057995	    0.003089
    0.000000	   82.989680	  128.797430	    0.000403	  152.336730	    0.002349	   23.475465	    0.003134	  -23.550525	    0.001199	   14.056708	    0.000138	  140.567080	    0.001376	   -0.003753	    0.000217	   -0.037530	    0.002167
    0.000000	   85.527500	  128.505255	    0.000524	  152.263790	    0.000636	   23.739645	    0.000919	  -23.777415	    0.015007	   14.038452	    0.000058	  140.384522	    0.000580	   -0.001889	    0.000796	   -0.018885	    0.007963
    0.000000	   88.057460	  128.662880	    0.001376	  152.300895	    0.002394	   23.780745	    0.002651	  -23.924475	    0.002178	   14.048189	    0.000188	  140.481887	    0.001885	   -0.007186	    0.000241	   -0.071865	    0.002415
    0.000000	   90.592510	  128.598580	    0.001101	  152.263060	    0.001038	   23.814270	    0.001806	  -23.720890	    0.002270	   14.043082	    0.000107	  140.430820	    0.001069	    0.004669	    0.000204	    0.046690	    0.002038
    0.000000	   93.126110	  128.323160	    0.001071	  152.203690	    0.001536	   24.027325	    0.003256	  -24.063710	    0.004093	   14.026343	    0.000130	  140.263425	    0.001304	   -0.001819	    0.000367	   -0.018192	    0.003674
    0.000000	   95.642620	  128.354810	    0.001262	  152.060230	    0.000342	   23.809105	    0.001824	  -23.766930	    0.002850	   14.020752	    0.000080	  140.207520	    0.000802	    0.002109	    0.000234	    0.021088	    0.002337
    0.000000	   98.194070	  128.417725	    0.001272	  152.344025	    0.001322	   24.221370	    0.003871	  -24.259515	    0.006537	   14.038088	    0.000130	  140.380875	    0.001297	   -0.001907	    0.000520	   -0.019073	    0.005204
    0.000000	  100.726700	  128.004500	    0.000880	  152.364730	    0.004001	   24.305665	    0.007014	  -24.310760	    0.001294	   14.018462	    0.000244	  140.184615	    0.002440	   -0.000255	    0.000415	   -0.002548	    0.004154
    0.000000	  103.246400	  128.303260	    0.001018	  150.716405	    0.002899	   19.898975	    0.001193	  -19.937510	    0.004842	   13.950983	    0.000196	  139.509833	    0.001958	   -0.001927	    0.000302	   -0.019267	    0.003017
    0.000000	  105.773900	  130.758150	    0.001561	  150.793355	    0.004963	   19.537740	    0.009926	  -19.574945	    0.000687	   14.077575	    0.000326	  140.775753	    0.003262	   -0.001860	    0.000531	   -0.018603	    0.005307
    0.000000	  108.310000	  130.746580	    0.001160	  150.526690	    0.004980	   19.677355	    0.004234	  -19.636965	    0.002881	   14.063664	    0.000307	  140.636635	    0.003070	    0.002019	    0.000356	    0.020195	    0.003557
    0.000000	  110.835900	  130.908450	    0.000943	  150.799390	    0.006068	   20.606100	    0.005552	  -20.585300	    0.010432	   14.085392	    0.000351	  140.853920	    0.003505	    0.001040	    0.000799	    0.010400	    0.007992
    0.000000	  113.367200	  130.589910	    0.000915	  150.476360	    0.001954	   20.081205	    0.002176	  -20.191720	    0.001750	   14.053313	    0.000143	  140.533135	    0.001435	   -0.005526	    0.000196	   -0.055257	    0.001963
    0.000000	  115.906300	  130.457550	    0.002767	  150.572925	    0.002626	   20.312745	    0.001373	  -20.247330	    0.002205	   14.051524	    0.000270	  140.515238	    0.002697	    0.003271	    0.000179	    0.032708	    0.001789
    0.000000	  118.427600	  130.516980	    0.000883	  150.531600	    0.001139	   19.860285	    0.001029	  -19.913120	    0.001322	   14.052429	    0.000101	  140.524290	    0.001011	   -0.002642	    0.000118	   -0.026417	    0.001176
    0.000000	  120.950600	  130.456465	    0.000841	  150.520045	    0.003710	   19.883365	    0.001623	  -19.881060	    0.003666	   14.048826	    0.000228	  140.488255	    0.002276	    0.000115	    0.000264	    0.001153	    0.002645
    0.000000	  123.474100	  130.567425	    0.010016	  150.800590	    0.000700	   20.556885	    0.001882	  -20.488810	    0.002214	   14.068401	    0.000536	  140.684007	    0.005358	    0.003404	    0.000205	    0.034038	    0.002048
    0.000000	  126.007400	  129.009795	    0.001526	  152.193395	    0.007198	   22.929145	    0.005795	  -22.725350	    0.005550	   14.060159	    0.000436	  140.601595	    0.004362	    0.010190	    0.000567	    0.101897	    0.005673
    0.000000	  128.533900	  128.478725	    0.001219	  153.524955	    0.000834	   25.332160	    0.003136	  -25.365610	    0.006747	   14.100184	    0.000103	  141.001840	    0.001026	   -0.001672	    0.000494	   -0.016725	    0.004941
    0.000000	  131.080800	  128.292055	    0.003556	  153.562355	    0.003846	   25.368565	    0.005317	  -25.210160	    0.010626	   14.092721	    0.000370	  140.927205	    0.003701	    0.007920	    0.000797	    0.079203	    0.007971
    0.000000	  133.592400	  128.567425	    0.000538	  153.321975	    0.001930	   25.156130	    0.002343	  -25.038875	    0.007928	   14.094470	    0.000123	  140.944700	    0.001234	    0.005863	    0.000514	    0.058628	    0.005135
    0.000000	  136.119300	  128.441830	    0.002524	  153.500460	    0.004929	   25.327285	    0.002705	  -25.279580	    0.005439	   14.097114	    0.000373	  140.971145	    0.003726	    0.002385	    0.000407	    0.023853	    0.004072
    0.000000	  138.645700	  128.504515	    0.002253	  153.534745	    0.001532	   25.381320	    0.007591	  -25.369890	    0.001680	   14.101963	    0.000189	  141.019630	    0.001893	    0.000571	    0.000464	    0.005715	    0.004636
    0.000000	  141.179500	  128.278265	    0.001179	  153.461930	    0.007187	   24.858175	    0.007025	  -24.813990	    0.005031	   14.087010	    0.000418	  140.870097	    0.004183	    0.002209	    0.000603	    0.022093	    0.006028
    0.000000	  143.699500	  128.479825	    0.002493	  153.413130	    0.003554	   25.218820	    0.004053	  -25.258205	    0.004778	   14.094648	    0.000302	  140.946477	    0.003023	   -0.001969	    0.000442	   -0.019693	    0.004415
    0.000000	  146.242700	  128.294755	    0.001153	  153.613410	    0.003510	   25.568330	    0.001960	  -25.426190	    0.006317	   14.095408	    0.000233	  140.954082	    0.002331	    0.007107	    0.000414	    0.071070	    0.004139
    0.000000	  148.771000	  128.129990	    0.002144	  153.600975	    0.005738	   25.677285	    0.001312	  -25.620700	    0.002195	   14.086548	    0.000394	  140.865482	    0.003941	    0.002829	    0.000175	    0.028292	    0.001754
    0.000000	  151.304100	  127.993975	    0.000465	  153.385560	    0.001302	   25.434675	    0.005355	  -25.418965	    0.004301	   14.068977	    0.000088	  140.689767	    0.000883	    0.000785	    0.000483	    0.007855	    0.004828
    0.000000	  153.823200	  128.391055	    0.001656	  152.897460	    0.003896	   24.785320	    0.001970	  -24.761100	    0.005438	   14.064426	    0.000278	  140.644257	    0.002776	    0.001211	    0.000370	    0.012110	    0.003704
    0.000000	  156.350100	  128.315755	    0.000646	  152.925710	    0.002114	   25.018065	    0.005160	  -25.019775	    0.006643	   14.062073	    0.000138	  140.620733	    0.001380	   -0.000086	    0.000590	   -0.000855	    0.005901
    0.000000	  158.877700	  127.989750	    0.000614	  152.919850	    0.006878	   24.983775	    0.001822	  -24.793475	    0.012509	   14.045480	    0.000375	  140.454800	    0.003746	    0.009515	    0.000717	    0.095150	    0.007166
    0.000000	  161.410600	  128.043180	    0.000482	  152.861305	    0.002554	   25.205575	    0.002263	  -25.178325	    0.001055	   14.045224	    0.000152	  140.452243	    0.001518	    0.001362	    0.000166	    0.013625	    0.001659
    0.000000	  163.935400	  127.949865	    0.002126	  152.613510	    0.001899	   24.697845	    0.005408	  -24.612985	    0.002555	   14.028169	    0.000201	  140.281688	    0.002013	    0.004243	    0.000398	    0.042430	    0.003981
    0.000000	  166.467400	  127.555075	    0.002376	  153.209310	    0.003566	   25.791465	    0.007171	  -25.618325	    0.018222	   14.038219	    0.000297	  140.382193	    0.002971	    0.008657	    0.001270	    0.086570	    0.012697
    0.000000	  168.996300	  127.592120	    0.001625	  153.114725	    0.003136	   25.444390	    0.004605	  -25.450925	    0.007442	   14.035342	    0.000238	  140.353422	    0.002381	   -0.000327	    0.000602	   -0.003268	    0.006024
    0.000000	  171.518100	  127.732810	    0.002508	  152.937785	    0.006088	   25.226120	    0.002065	  -25.102175	    0.006198	   14.033530	    0.000430	  140.335297	    0.004298	    0.006197	    0.000413	    0.061973	    0.004132
    0.000000	  174.038500	  127.786040	    0.000926	  153.010290	    0.003474	   25.345790	    0.004436	  -25.221765	    0.003193	   14.039817	    0.000220	  140.398165	    0.002200	    0.006201	    0.000381	    0.062013	    0.003815
    0.000000	  176.573800	  127.591295	    0.004607	  152.872930	    0.003564	   25.091695	    0.003249	  -25.120260	    0.003252	   14.023211	    0.000409	  140.232112	    0.004085	   -0.001428	    0.000325	   -0.014283	    0.003251
    0.000000	  179.106900	  127.593260	    0.000864	  152.953235	    0.003188	   25.296620	    0.004356	  -25.246860	    0.003581	   14.027325	    0.000203	  140.273247	    0.002026	    0.002488	    0.000397	    0.024880	    0.003968
    0.000000	  181.634400	  127.596270	    0.001971	  152.898910	    0.005508	   25.319295	    0.005774	  -25.262895	    0.004359	   14.024759	    0.000374	  140.247590	    0.003739	    0.002820	    0.000507	    0.028200	    0.005066
    0.000000	  184.151800	  127.376370	    0.001683	  153.007635	    0.001508	   25.550795	    0.002182	  -25.529475	    0.003796	   14.019200	    0.000160	  140.192003	    0.001596	    0.001066	    0.000299	    0.010660	    0.002989
    0.000000	  186.680200	  126.878445	    0.001918	  153.895845	    0.004917	   27.165100	    0.004520	  -27.252590	    0.001745	   14.038715	    0.000342	  140.387145	    0.003418	   -0.004374	    0.000313	   -0.043745	    0.003132
    0.000000	  189.216400	  126.904530	    0.001298	  153.765510	    0.001342	   26.971600	    0.004100	  -26.970900	    0.003658	   14.033502	    0.000132	  140.335020	    0.001320	    0.000035	    0.000388	    0.000350	    0.003879
    0.000000	  191.740700	  126.804350	    0.000951	  153.788285	    0.001511	   26.839110	    0.001980	  -26.782270	    0.003496	   14.029632	    0.000123	  140.296317	    0.001231	    0.002842	    0.000274	    0.028420	    0.002738
    0.000000	  194.255200	  126.843225	    0.002220	  153.715130	    0.001414	   26.858585	    0.007483	  -26.836800	    0.012980	   14.027918	    0.000182	  140.279178	    0.001817	    0.001089	    0.001023	    0.010892	    0.010232
    0.000000	  196.793600	  126.931480	    0.001157	  153.591450	    0.002071	   26.630240	    0.004424	  -26.686070	    0.002676	   14.026147	    0.000161	  140.261465	    0.001614	   -0.002791	    0.000355	   -0.027915	    0.003550
    0.000000	  199.317100	  127.008310	    0.000744	  153.489100	    0.001035	   26.555225	    0.003189	  -26.484645	    0.002718	   14.024871	    0.000089	  140.248705	    0.000890	    0.003529	    0.000295	    0.035290	    0.002953
    0.000000	  201.847800	  127.127425	    0.000770	  153.365315	    0.000819	   26.248930	    0.002207	  -26.260190	    0.004713	   14.024637	    0.000079	  140.246370	    0.000795	   -0.000563	    0.000346	   -0.005630	    0.003460
    0.000000	  204.364100	  127.124975	    0.001940	  153.249050	    0.000708	   26.086215	    0.001655	  -26.090730	    0.003718	   14.018701	    0.000132	  140.187013	    0.001324	   -0.000226	    0.000269	   -0.002258	    0.002686
    0.000000	  206.898400	  127.129005	    0.000382	  153.348065	    0.000759	   26.222010	    0.003483	  -26.206150	    0.003059	   14.023854	    0.000057	  140.238535	    0.000571	    0.000793	    0.000327	    0.007930	    0.003271
    0.000000	  209.426400	  127.089495	    0.000596	  153.426730	    0.001283	   26.362295	    0.002084	  -26.439055	    0.000544	   14.025811	    0.000094	  140.258112	    0.000939	   -0.003838	    0.000131	   -0.038380	    0.001314
    0.000000	  211.954800	  127.111675	    0.000989	  153.383040	    0.001997	   26.237590	    0.001786	  -26.233760	    0.001077	   14.024736	    0.000149	  140.247357	    0.001493	    0.000192	    0.000143	    0.001915	    0.001432
    0.000000	  214.466400	  127.151885	    0.000756	  153.501005	    0.002627	   26.388110	    0.002375	  -26.370470	    0.001234	   14.032644	    0.000169	  140.326445	    0.001692	    0.000882	    0.000180	    0.008820	    0.001804
    0.000000	  217.002500	  127.079935	    0.000537	  153.584740	    0.000606	   26.596290	    0.000878	  -26.565530	    0.001341	   14.033234	    0.000057	  140.332337	    0.000572	    0.001538	    0.000111	    0.015380	    0.001109
    0.000000	  219.532200	  126.933385	    0.001102	  153.739850	    0.003215	   26.926815	    0.002141	  -26.916725	    0.003067	   14.033662	    0.000216	  140.336617	    0.002159	    0.000504	    0.000260	    0.005045	    0.002604
    0.000000	  222.060400	  126.816530	    0.001295	  153.772420	    0.000406	   26.932590	    0.001217	  -26.952875	    0.001802	   14.029447	    0.000085	  140.294475	    0.000850	   -0.001014	    0.000151	   -0.010143	    0.001510
    0.000000	  224.576800	  126.770740	    0.000722	  153.904065	    0.001949	   27.211270	    0.002569	  -27.191345	    0.000511	   14.033740	    0.000134	  140.337402	    0.001336	    0.000996	    0.000154	    0.009963	    0.001540
    0.000000	  227.111400	  126.662890	    0.000433	  154.007505	    0.000495	   27.366085	    0.001585	  -27.306970	    0.002754	   14.033520	    0.000046	  140.335197	    0.000464	    0.002956	    0.000217	    0.029557	    0.002170
    0.000000	  229.638200	  126.640795	    0.000654	  154.069440	    0.001022	   27.511345	    0.002329	  -27.476965	    0.001881	   14.035512	    0.000084	  140.355118	    0.000838	    0.001719	    0.000210	    0.017190	    0.002105
    0.000000	  232.163100	  126.467375	    0.001399	  154.168340	    0.001912	   27.628630	    0.002474	  -27.607610	    0.002807	   14.031786	    0.000166	  140.317858	    0.001656	    0.001051	    0.000264	    0.010510	    0.002640
    0.000000	  234.679200	  126.412775	    0.001167	  154.261080	    0.001256	   27.857430	    0.001472	  -27.859645	    0.003071	   14.033693	    0.000121	  140.336928	    0.001212	   -0.000111	    0.000227	   -0.001107	    0.002272
    0.000000	  237.211500	  126.330965	    0.000683	  154.458660	    0.001033	   28.236895	    0.003525	  -28.225120	    0.002325	   14.039481	    0.000086	  140.394813	    0.000858	    0.000589	    0.000292	    0.005888	    0.002925
    0.000000	  239.745100	  126.154715	    0.000455	  154.524500	    0.001383	   28.409545	    0.004941	  -28.415025	    0.003541	   14.033961	    0.000092	  140.339607	    0.000919	   -0.000274	    0.000424	   -0.002740	    0.004241
    0.000000	  242.268900	  126.107475	    0.000605	  154.747255	    0.000947	   28.754620	    0.001987	  -28.750680	    0.002283	   14.042737	    0.000078	  140.427365	    0.000776	    0.000197	    0.000213	    0.001970	    0.002135
    0.000000	  244.789800	  126.037020	    0.000854	  154.864795	    0.001501	   28.901685	    0.003167	  -28.905665	    0.001632	   14.045091	    0.000118	  140.450907	    0.001177	   -0.000199	    0.000240	   -0.001990	    0.002399
    0.000000	  247.325800	  125.951335	    0.001060	  154.881275	    0.001308	   28.803900	    0.000660	  -28.818930	    0.001399	   14.041631	    0.000118	  140.416305	    0.001184	   -0.000751	    0.000103	   -0.007515	    0.001030
    0.000000	  249.845900	  126.053345	    0.000886	  155.013775	    0.000656	   28.995055	    0.003081	  -28.931780	    0.002578	   14.053356	    0.000077	  140.533560	    0.000771	    0.003164	    0.000283	    0.031638	    0.002829
    0.000000	  252.378100	  125.965375	    0.000433	  155.173915	    0.002654	   29.248330	    0.001994	  -29.198570	    0.005995	   14.056964	    0.000154	  140.569645	    0.001544	    0.002488	    0.000399	    0.024880	    0.003995
    0.000000	  254.900600	  125.824175	    0.000849	  155.329775	    0.002219	   29.509170	    0.000774	  -29.510000	    0.002656	   14.057697	    0.000153	  140.576975	    0.001534	   -0.000041	    0.000171	   -0.000415	    0.001715
    0.000000	  257.422000	  125.732760	    0.002094	  155.473145	    0.001996	   29.751975	    0.003103	  -29.746425	    0.005419	   14.060295	    0.000205	  140.602952	    0.002045	    0.000277	    0.000426	    0.002775	    0.004261
    0.000000	  259.951300	  125.647510	    0.001159	  155.571000	    0.002561	   29.910165	    0.003732	  -29.896755	    0.003352	   14.060926	    0.000186	  140.609255	    0.001860	    0.000670	    0.000354	    0.006705	    0.003542
    0.000000	  262.476500	  125.550230	    0.000566	  155.681495	    0.000555	   30.117490	    0.004471	  -30.173870	    0.003587	   14.061586	    0.000056	  140.615862	    0.000560	   -0.002819	    0.000403	   -0.028190	    0.004029
    0.000000	  264.994600	  125.588525	    0.000615	  155.699200	    0.000344	   30.084170	    0.001508	  -30.072895	    0.001717	   14.064386	    0.000048	  140.643862	    0.000479	    0.000564	    0.000161	    0.005638	    0.001612
    0.000000	  267.536900	  125.613425	    0.000751	  155.703715	    0.001121	   30.097060	    0.002284	  -30.031375	    0.001728	   14.065857	    0.000094	  140.658570	    0.000936	    0.003284	    0.000201	    0.032843	    0.002006
    0.000000	  270.063400	  125.464600	    0.000878	  155.634870	    0.000724	   29.943785	    0.000808	  -29.925880	    0.000838	   14.054973	    0.000080	  140.549735	    0.000801	    0.000895	    0.000082	    0.008952	    0.000823
    0.000000	  272.583300	  125.627885	    0.000297	  155.644050	    0.000483	   29.895875	    0.000947	  -29.878210	    0.001784	   14.063597	    0.000039	  140.635967	    0.000390	    0.000883	    0.000137	    0.008832	    0.001366
    0.000000	  275.106700	  125.482735	    0.000639	  155.785290	    0.001034	   30.335955	    0.001559	  -30.320130	    0.002017	   14.063401	    0.000084	  140.634012	    0.000837	    0.000791	    0.000179	    0.007912	    0.001788
    0.000000	  277.632300	  125.474245	    0.000866	  155.762740	    0.002154	   30.296950	    0.001747	  -30.269955	    0.002206	   14.061849	    0.000151	  140.618492	    0.001510	    0.001350	    0.000198	    0.013497	    0.001977
    0.000000	  280.158700	  125.367730	    0.001011	  155.772685	    0.001347	   30.433350	    0.002202	  -30.415685	    0.001813	   14.057021	    0.000118	  140.570207	    0.001179	    0.000883	    0.000201	    0.008832	    0.002007
    0.000000	  282.684200	  125.197185	    0.000914	  155.780795	    0.000991	   30.586235	    0.001448	  -30.589080	    0.003239	   14.048899	    0.000095	  140.488990	    0.000952	   -0.000142	    0.000234	   -0.001423	    0.002344
    0.000000	  285.207200	  125.017270	    0.000347	  155.772870	    0.001005	   30.786190	    0.001529	  -30.788505	    0.002279	   14.039507	    0.000068	  140.395070	    0.000676	   -0.000116	    0.000190	   -0.001158	    0.001904
    0.000000	  287.753400	  124.697555	    0.000376	  155.837120	    0.000610	   31.170615	    0.002188	  -31.174635	    0.002405	   14.026734	    0.000049	  140.267337	    0.000493	   -0.000201	    0.000230	   -0.002010	    0.002296
    0.000000	  290.267000	  124.448775	    0.000285	  155.782475	    0.000979	   31.334775	    0.001791	  -31.325585	    0.001827	   14.011563	    0.000063	  140.115625	    0.000632	    0.000459	    0.000181	    0.004595	    0.001809
    0.000000	  292.787000	  124.211255	    0.000311	  155.679025	    0.000747	   31.454865	    0.002216	  -31.442660	    0.001222	   13.994514	    0.000053	  139.945140	    0.000529	    0.000610	    0.000172	    0.006102	    0.001719
    0.000000	  295.319800	  124.032275	    0.000354	  155.547295	    0.001500	   31.512555	    0.001363	  -31.473670	    0.000570	   13.978979	    0.000093	  139.789785	    0.000927	    0.001944	    0.000097	    0.019443	    0.000966
    0.000000	  297.856900	  123.889260	    0.000474	  155.278420	    0.001148	   31.386205	    0.001296	  -31.362015	    0.003500	   13.958384	    0.000081	  139.583840	    0.000811	    0.001209	    0.000240	    0.012095	    0.002398
    0.000000	  300.386800	  124.021935	    0.000386	  154.770115	    0.000909	   30.746475	    0.001758	  -30.748915	    0.002142	   13.939603	    0.000065	  139.396025	    0.000647	   -0.000122	    0.000195	   -0.001220	    0.001950
